# scan = 180
# date = 11/10/2003
# time = 1:40:32 AM
# experiment = TbPtIn single crystal;  100 plane
# experiment_number = 41
# command = scan h 1.94 2.06 .005 k 1.94 2.06 .005 l 1.94 2.06 .005 preset mcu 20
# builtin_command = scan h 1.94 2.06 .005 k 1.94 2.06 .005 l 1.94 2.06 .005 preset mcu 20
# users = O.Garlea, C.Stassis, J.L.Zarestky
# local_contact = J.L.Zarestky
# scan_title = 222 order parameter DN T = 28.0000
# monochromator = PG002
# analyzer = Pg002
# sense = +-+
# collimation = 48-40-40-102
# samplename = TbPtIn
# sampletype = crystal
# samplemosaic = 30.000000
# latticeconstants = 7.554017,7.554017,3.847681,90.000000,90.000000,120.000000
# ubmatrix = -0.008230,-0.004834,0.259516,-0.134256,-0.130074,-0.012979,0.072618,-0.080146,0.005414
# mode = 0
# plane_normal = -0.022217,-0.027363,0.999379
# ubconf = C:\User\exp41\UBConf\UB08Nov2003_100555PM.ini
# preset_type = normal 
# preset_channel = mcu
# preset_value = 20.000000
# def_x = h
# def_y = detector
# col_headers = 
#   Pt.          h          k          l       time   detector    monitor        mcu         m2         s1         s2        sgl        sgu        stl        stu         a1         a2          q         ei         ef          e       temp    coldtip    tsample
      1     1.9400     1.9398     1.9401     18.650      6.000  74000.000     20.000    41.2537    -9.9321  -116.5757     1.2730    -1.5670    -0.0020    -0.0010    20.6267    41.2556     4.5224    14.6405    14.6392     0.0013    28.0000    28.0070    30.964
      2     1.9452     1.9450     1.9449     18.432      4.000  74000.000     20.000    41.2537   -10.1654  -117.0530     1.2730    -1.5670    -0.0020    -0.0010    20.6266    41.2556     4.5340    14.6405    14.6392     0.0013    28.0000    28.0110    30.526
      3     1.9500     1.9499     1.9500     18.491      4.000  74000.000     20.000    41.2537   -10.4094  -117.5353     1.2730    -1.5670    -0.0020    -0.0010    20.6266    41.2556     4.5456    14.6405    14.6392     0.0013    28.0000    27.9970    30.495
      4     1.9550     1.9549     1.9550     18.582      1.000  74000.000     20.000    41.2537   -10.6526  -118.0206     1.2730    -1.5670    -0.0020    -0.0010    20.6266    41.2556     4.5572    14.6405    14.6392     0.0013    28.0000    28.0040    30.736
      5     1.9601     1.9600     1.9600     18.604      2.000  74000.000     20.000    41.2537   -10.8957  -118.5117     1.2730    -1.5670    -0.0020    -0.0010    20.6266    41.2556     4.5689    14.6405    14.6392     0.0013    28.0000    28.0060    30.885
      6     1.9651     1.9649     1.9650     18.522      3.000  74000.000     20.000    41.2537   -11.1417  -119.0028     1.2730    -1.5670    -0.0020    -0.0010    20.6266    41.2556     4.5805    14.6405    14.6392     0.0013    28.0000    27.9990    30.747
      7     1.9700     1.9699     1.9700     18.601      2.000  74000.000     20.000    41.2537   -11.3927  -119.5009     1.2730    -1.5670    -0.0020    -0.0010    20.6266    41.2556     4.5922    14.6405    14.6392     0.0013    28.0000    27.9930    30.424
      8     1.9751     1.9749     1.9750     18.718     30.000  74000.000     20.000    41.2537   -11.6417  -120.0009     1.2730    -1.5670    -0.0020    -0.0010    20.6266    41.2556     4.6039    14.6405    14.6392     0.0013    28.0000    28.0110    31.019
      9     1.9801     1.9800     1.9800     18.651    404.000  74000.000     20.000    41.2537   -11.8937  -120.5078     1.2730    -1.5670    -0.0020    -0.0010    20.6266    41.2556     4.6156    14.6405    14.6392     0.0013    28.0000    28.0070    30.161
     10     1.9852     1.9851     1.9849     18.688   1045.000  74000.000     20.000    41.2537   -12.1467  -121.0186     1.2730    -1.5670    -0.0020    -0.0010    20.6266    41.2556     4.6273    14.6405    14.6392     0.0013    28.0000    28.0150    30.833
     11     1.9901     1.9899     1.9900     18.545   1477.000  74000.000     20.000    41.2537   -12.4055  -121.5294     1.2730    -1.5670    -0.0020    -0.0010    20.6266    41.2556     4.6389    14.6405    14.6392     0.0013    28.0000    28.0100    31.744
     12     1.9951     1.9949     1.9950     18.681   1405.000  74000.000     20.000    41.2537   -12.6624  -122.0442     1.2730    -1.5670    -0.0020    -0.0010    20.6266    41.2556     4.6505    14.6405    14.6392     0.0013    28.0000    27.9970    30.787
     13     2.0000     1.9999     2.0000     18.557   1543.000  74000.000     20.000    41.2537   -12.9222  -122.5619     1.2730    -1.5670    -0.0020    -0.0010    20.6266    41.2556     4.6621    14.6405    14.6392     0.0013    28.0000    27.9960    30.915
     14     2.0051     2.0050     2.0050     18.555   1703.000  74000.000     20.000    41.2537   -13.1850  -123.0904     1.2730    -1.5670    -0.0020    -0.0010    20.6266    41.2556     4.6738    14.6405    14.6392     0.0013    28.0000    28.0030    31.141
     15     2.0101     2.0099     2.0100     18.647   1575.000  74000.000     20.000    41.2537   -13.4518  -123.6200     1.2730    -1.5670    -0.0020    -0.0010    20.6266    41.2556     4.6855    14.6405    14.6392     0.0013    28.0000    28.0050    30.582
     16     2.0151     2.0149     2.0150     18.656   1316.000  74000.000     20.000    41.2537   -13.7175  -124.1524     1.2730    -1.5670    -0.0020    -0.0010    20.6266    41.2556     4.6971    14.6405    14.6392     0.0013    28.0000    28.0170    30.578
     17     2.0201     2.0200     2.0200     18.677    422.000  74000.000     20.000    41.2537   -13.9862  -124.6928     1.2730    -1.5670    -0.0020    -0.0010    20.6266    41.2556     4.7088    14.6405    14.6392     0.0013    28.0000    28.0040    30.839
     18     2.0251     2.0249     2.0250     18.601     16.000  74000.000     20.000    41.2537   -14.2589  -125.2351     1.2730    -1.5670    -0.0020    -0.0010    20.6266    41.2556     4.7204    14.6405    14.6392     0.0013    28.0000    27.9980    30.690
     19     2.0301     2.0299     2.0300     18.661      5.000  74000.000     20.000    41.2537   -14.5335  -125.7853     1.2730    -1.5670    -0.0020    -0.0010    20.6266    41.2556     4.7321    14.6405    14.6392     0.0013    28.0000    27.9960    30.498
     20     2.0351     2.0349     2.0350     18.654      2.000  74000.000     20.000    41.2537   -14.8091  -126.3385     1.2730    -1.5670    -0.0020    -0.0010    20.6266    41.2556     4.7438    14.6405    14.6392     0.0013    28.0000    28.0090    30.908
     21     2.0400     2.0399     2.0400     18.630      2.000  74000.000     20.000    41.2537   -15.0906  -126.8975     1.2730    -1.5670    -0.0020    -0.0010    20.6266    41.2556     4.7554    14.6405    14.6392     0.0013    28.0000    28.0160    31.484
     22     2.0451     2.0449     2.0450     18.597      3.000  74000.000     20.000    41.2537   -15.3720  -127.4635     1.2730    -1.5670    -0.0020    -0.0010    20.6266    41.2556     4.7671    14.6405    14.6392     0.0013    28.0000    28.0040    30.658
     23     2.0500     2.0499     2.0500     18.710      2.000  74000.000     20.000    41.2537   -15.6585  -128.0333     1.2730    -1.5670    -0.0020    -0.0010    20.6266    41.2556     4.7787    14.6405    14.6392     0.0013    28.0000    28.0050    30.950
     24     2.0552     2.0550     2.0549     18.577      4.000  74000.000     20.000    41.2537   -15.9449  -128.6141     1.2730    -1.5670    -0.0020    -0.0010    20.6266    41.2556     4.7905    14.6405    14.6392     0.0013    28.0000    28.0080    30.779
     25     2.0601     2.0600     2.0599     18.544      3.000  74000.000     20.000    41.2537   -16.2352  -129.1918     1.2730    -1.5670    -0.0020    -0.0010    20.6266    41.2556     4.8020    14.6405    14.6392     0.0013    28.0000    27.9990    30.844
# Sum of Counts = 10979
# Center of Mass = 2.000679+/-0.027003
# Full Width Half-Maximum = 0.022301+/-0.016167
# 1:49:37 AM  11/10/2003   scan completed.
