# scan = 36
# date = 11/9/2003
# time = 12:51:44 AM
# experiment = TbPtIn single crystal;  100 plane
# experiment_number = 41
# command = scan h -.3 1.52 .005 k -.3 1.52 .005 l .7 2.52 .005 preset mcu 6
# builtin_command = scan h -.3 1.52 .005 k -.3 1.52 .005 l .7 2.52 .005 preset mcu 6
# users = O.Garlea, C.Stassis, J.L.Zarestky
# local_contact = J.L.Zarestky
# scan_title = h,h,h+1 scan
# monochromator = PG002
# analyzer = Pg002
# sense = +-+
# collimation = 48-40-40-102
# samplename = TbPtIn
# sampletype = crystal
# samplemosaic = 30.000000
# latticeconstants = 7.554017,7.554017,3.847681,90.000000,90.000000,120.000000
# ubmatrix = -0.008230,-0.004834,0.259516,-0.134256,-0.130074,-0.012979,0.072618,-0.080146,0.005414
# mode = 0
# plane_normal = -0.022217,-0.027363,0.999379
# ubconf = C:\User\exp41\UBConf\UB08Nov2003_100555PM.ini
# preset_type = normal 
# preset_channel = mcu
# preset_value = 6.000000
# def_x = h
# def_y = detector
# col_headers = 
#   Pt.          h          k          l       time   detector    monitor        mcu         m2         s1         s2        sgl        sgu        stl        stu         a1         a2          q         ei         ef          e       temp    coldtip    tsample
      1    -0.3000    -0.3000     0.7000      5.611      1.000  22200.000      6.000    41.2537   -34.3317   -27.1396     1.2730    -1.5670    -0.0020    -0.0010    20.6267    41.2556     1.2473    14.6405    14.6392     0.0013   295.0000     9.7833     9.550
      2    -0.2950    -0.2950     0.7050      5.644      1.000  22200.000      6.000    41.2537   -33.8789   -27.2322     1.2730    -1.5670    -0.0020    -0.0010    20.6267    41.2556     1.2515    14.6405    14.6392     0.0013   295.0000     9.7123     9.452
      3    -0.2900    -0.2900     0.7100      5.568      3.000  22200.000      6.000    41.2537   -33.4311   -27.3276     1.2730    -1.5670    -0.0020    -0.0010    20.6267    41.2556     1.2558    14.6405    14.6392     0.0013   295.0000     9.7191     9.483
      4    -0.2850    -0.2850     0.7150      5.618      0.000  22200.000      6.000    41.2537   -32.9882   -27.4241     1.2730    -1.5670    -0.0020    -0.0010    20.6267    41.2556     1.2601    14.6405    14.6392     0.0013   295.0000     9.7191     9.483
      5    -0.2800    -0.2800     0.7200      5.671      2.000  22200.000      6.000    41.2537   -32.5502   -27.5235     1.2730    -1.5670    -0.0020    -0.0010    20.6267    41.2556     1.2646    14.6405    14.6392     0.0013   295.0000     9.7178     9.467
      6    -0.2750    -0.2750     0.7250      5.646      2.000  22200.000      6.000    41.2537   -32.1161   -27.6269     1.2730    -1.5670    -0.0020    -0.0010    20.6267    41.2556     1.2693    14.6405    14.6392     0.0013   295.0000     9.7150     9.444
      7    -0.2700    -0.2700     0.7300      5.628      0.000  22200.000      6.000    41.2537   -31.6860   -27.7292     1.2730    -1.5670    -0.0020    -0.0010    20.6267    41.2556     1.2739    14.6405    14.6392     0.0013   295.0000     9.7112     9.455
      8    -0.2650    -0.2650     0.7350      5.597      1.000  22200.000      6.000    41.2537   -31.2608   -27.8335     1.2730    -1.5670    -0.0020    -0.0010    20.6267    41.2556     1.2786    14.6405    14.6392     0.0013   295.0000     9.7889     9.513
      9    -0.2600    -0.2600     0.7400      5.612      0.000  22200.000      6.000    41.2537   -30.8406   -27.9418     1.2730    -1.5670    -0.0020    -0.0010    20.6267    41.2556     1.2835    14.6405    14.6392     0.0013   295.0000     9.7889     9.513
     10    -0.2550    -0.2550     0.7450      5.648      1.000  22200.000      6.000    41.2537   -30.4252   -28.0520     1.2730    -1.5670    -0.0020    -0.0010    20.6267    41.2556     1.2884    14.6405    14.6392     0.0013   295.0000     9.7257     9.486
     11    -0.2500    -0.2500     0.7500      5.603      0.000  22200.000      6.000    41.2537   -30.0138   -28.1643     1.2730    -1.5670    -0.0020    -0.0010    20.6267    41.2556     1.2935    14.6405    14.6392     0.0013   295.0000     9.7227     9.464
     12    -0.2450    -0.2450     0.7550      5.548      2.000  22200.000      6.000    41.2537   -29.6073   -28.2774     1.2730    -1.5670    -0.0020    -0.0010    20.6267    41.2556     1.2986    14.6405    14.6392     0.0013   295.0000     9.7298     9.503
     13    -0.2400    -0.2400     0.7600      5.662      0.000  22200.000      6.000    41.2537   -29.2057   -28.3906     1.2730    -1.5670    -0.0020    -0.0010    20.6267    41.2556     1.3036    14.6405    14.6392     0.0013   295.0000     9.7257     9.475
     14    -0.2350    -0.2350     0.7650      5.651      1.000  22200.000      6.000    41.2537   -28.8071   -28.5087     1.2730    -1.5670    -0.0020    -0.0010    20.6267    41.2556     1.3090    14.6405    14.6392     0.0013   295.0000     9.7257     9.475
     15    -0.2300    -0.2300     0.7700      5.586      1.000  22200.000      6.000    41.2537   -28.4163   -28.6278     1.2730    -1.5670    -0.0020    -0.0010    20.6267    41.2556     1.3143    14.6405    14.6392     0.0013   295.0000     9.7264     9.478
     16    -0.2250    -0.2250     0.7750      5.695      2.000  22200.000      6.000    41.2537   -28.0266   -28.7479     1.2730    -1.5670    -0.0020    -0.0010    20.6267    41.2556     1.3197    14.6405    14.6392     0.0013   295.0000     9.7949     9.485
     17    -0.2200    -0.2200     0.7800      5.607      1.000  22200.000      6.000    41.2537   -27.6427   -28.8719     1.2730    -1.5670    -0.0020    -0.0010    20.6267    41.2556     1.3253    14.6405    14.6392     0.0013   295.0000     9.7318     9.461
     18    -0.2150    -0.2150     0.7850      5.667      1.000  22200.000      6.000    41.2537   -27.2638   -28.9950     1.2730    -1.5670    -0.0020    -0.0010    20.6267    41.2556     1.3308    14.6405    14.6392     0.0013   295.0000     9.7372     9.472
     19    -0.2100    -0.2100     0.7900      5.647      1.000  22200.000      6.000    41.2537   -26.8888   -29.1219     1.2730    -1.5670    -0.0020    -0.0010    20.6267    41.2556     1.3365    14.6405    14.6392     0.0013   295.0000     9.7310     9.538
     20    -0.2050    -0.2050     0.7950      5.601      3.000  22200.000      6.000    41.2537   -26.5197   -29.2509     1.2730    -1.5670    -0.0020    -0.0010    20.6267    41.2556     1.3423    14.6405    14.6392     0.0013   295.0000     9.7310     9.538
     21    -0.2000    -0.2000     0.8000      5.678      1.000  22200.000      6.000    41.2537   -26.1545   -29.3788     1.2730    -1.5670    -0.0020    -0.0010    20.6267    41.2556     1.3480    14.6405    14.6392     0.0013   295.0000     9.7294     9.458
     22    -0.1950    -0.1950     0.8050      5.604      0.000  22200.000      6.000    41.2537   -25.7943   -29.5117     1.2730    -1.5670    -0.0020    -0.0010    20.6267    41.2556     1.3540    14.6405    14.6392     0.0013   295.0000     9.7327     9.468
     23    -0.1900    -0.1900     0.8100      5.639      0.000  22200.000      6.000    41.2537   -25.4380   -29.6446     1.2730    -1.5670    -0.0020    -0.0010    20.6267    41.2556     1.3600    14.6405    14.6392     0.0013   295.0000     9.7346     9.447
     24    -0.1850    -0.1850     0.8150      5.534      1.000  22200.000      6.000    41.2537   -25.0866   -29.7784     1.2730    -1.5670    -0.0020    -0.0010    20.6267    41.2556     1.3660    14.6405    14.6392     0.0013   295.0000     9.7409     9.495
     25    -0.1800    -0.1800     0.8200      5.649      3.000  22200.000      6.000    41.2537   -24.7382   -29.9152     1.2730    -1.5670    -0.0020    -0.0010    20.6267    41.2556     1.3721    14.6405    14.6392     0.0013   295.0000     9.7409     9.495
     26    -0.1750    -0.1750     0.8250      5.565      0.000  22200.000      6.000    41.2537   -24.3967   -30.0530     1.2730    -1.5670    -0.0020    -0.0010    20.6267    41.2556     1.3783    14.6405    14.6392     0.0013   295.0000     9.7532     9.482
     27    -0.1700    -0.1700     0.8300      5.626      3.000  22200.000      6.000    41.2537   -24.0591   -30.1938     1.2730    -1.5670    -0.0020    -0.0010    20.6267    41.2556     1.3846    14.6405    14.6392     0.0013   295.0000     9.7495     9.513
     28    -0.1650    -0.1650     0.8350      5.633      2.000  22200.000      6.000    41.2537   -23.7254   -30.3355     1.2730    -1.5670    -0.0020    -0.0010    20.6267    41.2556     1.3909    14.6405    14.6392     0.0013   295.0000     9.7550     9.466
     29    -0.1600    -0.1600     0.8400      5.644      2.000  22200.000      6.000    41.2537   -23.3957   -30.4772     1.2730    -1.5670    -0.0020    -0.0010    20.6267    41.2556     1.3973    14.6405    14.6392     0.0013   295.0000     9.7619     9.554
     30    -0.1550    -0.1550     0.8450      5.580      0.000  22200.000      6.000    41.2537   -23.0719   -30.6219     1.2730    -1.5670    -0.0020    -0.0010    20.6267    41.2556     1.4037    14.6405    14.6392     0.0013   295.0000     9.7619     9.554
     31    -0.1500    -0.1500     0.8500      5.582      1.000  22200.000      6.000    41.2537   -22.7500   -30.7696     1.2730    -1.5670    -0.0020    -0.0010    20.6267    41.2556     1.4104    14.6405    14.6392     0.0013   295.0000     9.8217     9.512
     32    -0.1450    -0.1450     0.8550      5.659      2.000  22200.000      6.000    41.2537   -22.4360   -30.9143     1.2730    -1.5670    -0.0020    -0.0010    20.6267    41.2556     1.4168    14.6405    14.6392     0.0013   295.0000     9.7657     9.479
     33    -0.1400    -0.1400     0.8601      5.625      1.000  22200.000      6.000    41.2537   -22.1240   -31.0668     1.2730    -1.5670    -0.0020    -0.0010    20.6267    41.2556     1.4236    14.6405    14.6392     0.0013   295.0000     9.7716     9.475
     34    -0.1350    -0.1350     0.8651      5.673      1.000  22200.000      6.000    41.2537   -21.8169   -31.2184     1.2730    -1.5670    -0.0020    -0.0010    20.6267    41.2556     1.4304    14.6405    14.6392     0.0013   295.0000     9.7747     9.549
     35    -0.1300    -0.1300     0.8700      5.651      1.000  22200.000      6.000    41.2537   -21.5138   -31.3660     1.2730    -1.5670    -0.0020    -0.0010    20.6267    41.2556     1.4370    14.6405    14.6392     0.0013   295.0000     9.7747     9.549
     36    -0.1250    -0.1250     0.8750      5.608      1.000  22200.000      6.000    41.2537   -21.2156   -31.5206     1.2730    -1.5670    -0.0020    -0.0010    20.6267    41.2556     1.4439    14.6405    14.6392     0.0013   295.0000     9.7778     9.468
     37    -0.1200    -0.1200     0.8800      5.604      0.000  22200.000      6.000    41.2537   -20.9222   -31.6761     1.2730    -1.5670    -0.0020    -0.0010    20.6267    41.2556     1.4509    14.6405    14.6392     0.0013   295.0000     9.7777     9.482
     38    -0.1150    -0.1150     0.8849      5.662      4.000  22200.000      6.000    41.2537   -20.6319   -31.8296     1.2730    -1.5670    -0.0020    -0.0010    20.6267    41.2556     1.4577    14.6405    14.6392     0.0013   295.0000     9.7798     9.533
     39    -0.1100    -0.1100     0.8900      5.659      0.000  22200.000      6.000    41.2537   -20.3465   -31.9891     1.2730    -1.5670    -0.0020    -0.0010    20.6267    41.2556     1.4648    14.6405    14.6392     0.0013   295.0000     9.7930     9.511
     40    -0.1050    -0.1050     0.8950      5.634      1.000  22200.000      6.000    41.2537   -20.0650   -32.1485     1.2730    -1.5670    -0.0020    -0.0010    20.6267    41.2556     1.4719    14.6405    14.6392     0.0013   295.0000     9.7930     9.511
     41    -0.1000    -0.1000     0.9000      5.721      1.000  22200.000      6.000    41.2537   -19.7874   -32.3080     1.2730    -1.5670    -0.0020    -0.0010    20.6267    41.2556     1.4790    14.6405    14.6392     0.0013   295.0000     9.7897     9.493
     42    -0.0950    -0.0950     0.9050      5.592      0.000  22200.000      6.000    41.2537   -19.5157   -32.4694     1.2730    -1.5670    -0.0020    -0.0010    20.6267    41.2556     1.4862    14.6405    14.6392     0.0013   295.0000     9.7876     9.542
     43    -0.0900    -0.0900     0.9100      5.654      0.000  22200.000      6.000    41.2537   -19.2461   -32.6347     1.2730    -1.5670    -0.0020    -0.0010    20.6267    41.2556     1.4936    14.6405    14.6392     0.0013   295.0000     9.7905     9.478
     44    -0.0850    -0.0850     0.9150      5.603      1.000  22200.000      6.000    41.2537   -18.9803   -32.7971     1.2730    -1.5670    -0.0020    -0.0010    20.6267    41.2556     1.5008    14.6405    14.6392     0.0013   295.0000     9.7952     9.512
     45    -0.0800    -0.0800     0.9200      5.539      0.000  22200.000      6.000    41.2537   -18.7205   -32.9625     1.2730    -1.5670    -0.0020    -0.0010    20.6267    41.2556     1.5082    14.6405    14.6392     0.0013   295.0000     9.7952     9.512
     46    -0.0750    -0.0750     0.9250      5.667      0.000  22200.000      6.000    41.2537   -18.4626   -33.1318     1.2730    -1.5670    -0.0020    -0.0010    20.6267    41.2556     1.5157    14.6405    14.6392     0.0013   295.0000     9.8453     9.561
     47    -0.0700    -0.0700     0.9300      5.616      0.000  22200.000      6.000    41.2537   -18.2087   -33.2991     1.2730    -1.5670    -0.0020    -0.0010    20.6267    41.2556     1.5231    14.6405    14.6392     0.0013   295.0000     9.7915     9.495
     48    -0.0650    -0.0650     0.9350      5.696      2.000  22200.000      6.000    41.2537   -17.9606   -33.4674     1.2730    -1.5670    -0.0020    -0.0010    20.6267    41.2556     1.5306    14.6405    14.6392     0.0013   295.0000     9.7938     9.503
     49    -0.0600    -0.0600     0.9400      5.624      0.000  22200.000      6.000    41.2537   -17.7156   -33.6406     1.2730    -1.5670    -0.0020    -0.0010    20.6267    41.2556     1.5383    14.6405    14.6392     0.0013   295.0000     9.7938     9.503
     50    -0.0550    -0.0550     0.9450      5.646      1.000  22200.000      6.000    41.2537   -17.4744   -33.8099     1.2730    -1.5670    -0.0020    -0.0010    20.6267    41.2556     1.5458    14.6405    14.6392     0.0013   295.0000     9.8503     9.597
     51    -0.0500    -0.0500     0.9499      5.583      2.000  22200.000      6.000    41.2537   -17.2362   -33.9822     1.2730    -1.5670    -0.0020    -0.0010    20.6267    41.2556     1.5535    14.6405    14.6392     0.0013   295.0000     9.7930     9.476
     52    -0.0450    -0.0450     0.9551      5.637      0.000  22200.000      6.000    41.2537   -17.0030   -34.1603     1.2730    -1.5670    -0.0020    -0.0010    20.6267    41.2556     1.5614    14.6405    14.6392     0.0013   295.0000     9.7954     9.508
     53    -0.0400    -0.0400     0.9600      5.647      0.000  22200.000      6.000    41.2537   -16.7726   -34.3335     1.2730    -1.5670    -0.0020    -0.0010    20.6267    41.2556     1.5691    14.6405    14.6392     0.0013   295.0000     9.7989     9.568
     54    -0.0350    -0.0350     0.9650      5.607      0.000  22200.000      6.000    41.2537   -16.5463   -34.5097     1.2730    -1.5670    -0.0020    -0.0010    20.6267    41.2556     1.5769    14.6405    14.6392     0.0013   295.0000     9.7989     9.568
     55    -0.0300    -0.0300     0.9700      5.625      1.000  22200.000      6.000    41.2537   -16.3248   -34.6889     1.2730    -1.5670    -0.0020    -0.0010    20.6267    41.2556     1.5848    14.6405    14.6392     0.0013   295.0000     9.8034     9.524
     56    -0.0250    -0.0250     0.9750      5.610      1.000  22200.000      6.000    41.2537   -16.1053   -34.8660     1.2730    -1.5670    -0.0020    -0.0010    20.6267    41.2556     1.5926    14.6405    14.6392     0.0013   295.0000     9.8104     9.513
     57    -0.0200    -0.0200     0.9800      5.643      1.000  22200.000      6.000    41.2537   -15.8898   -35.0471     1.2730    -1.5670    -0.0020    -0.0010    20.6267    41.2556     1.6007    14.6405    14.6392     0.0013   295.0000     9.8060     9.565
     58    -0.0150    -0.0150     0.9850      5.614      1.000  22200.000      6.000    41.2537   -15.6781   -35.2292     1.2730    -1.5670    -0.0020    -0.0010    20.6267    41.2556     1.6087    14.6405    14.6392     0.0013   295.0000     9.8112     9.608
     59    -0.0100    -0.0100     0.9900      5.634      0.000  22200.000      6.000    41.2537   -15.4705   -35.4103     1.2730    -1.5670    -0.0020    -0.0010    20.6267    41.2556     1.6167    14.6405    14.6392     0.0013   295.0000     9.8112     9.608
     60    -0.0050    -0.0050     0.9950      5.622      1.000  22200.000      6.000    41.2537   -15.2648   -35.5954     1.2730    -1.5670    -0.0020    -0.0010    20.6267    41.2556     1.6249    14.6405    14.6392     0.0013   295.0000     9.8073     9.512
     61     0.0000     0.0000     1.0000      5.618     12.000  22200.000      6.000    41.2537   -15.0640   -35.7794     1.2730    -1.5670    -0.0020    -0.0010    20.6267    41.2556     1.6330    14.6405    14.6392     0.0013   295.0000     9.8112     9.509
     62     0.0050     0.0050     1.0050      5.616      8.000  22200.000      6.000    41.2537   -14.8661   -35.9625     1.2730    -1.5670    -0.0020    -0.0010    20.6267    41.2556     1.6411    14.6405    14.6392     0.0013   295.0000     9.8152     9.572
     63     0.0100     0.0100     1.0100      5.601      1.000  22200.000      6.000    41.2537   -14.6722   -36.1515     1.2730    -1.5670    -0.0020    -0.0010    20.6267    41.2556     1.6494    14.6405    14.6392     0.0013   295.0000     9.8198     9.564
     64     0.0150     0.0150     1.0150      5.627      0.000  22200.000      6.000    41.2537   -14.4813   -36.3375     1.2730    -1.5670    -0.0020    -0.0010    20.6267    41.2556     1.6576    14.6405    14.6392     0.0013   295.0000     9.8198     9.564
     65     0.0200     0.0200     1.0200      5.672      1.000  22200.000      6.000    41.2537   -14.2933   -36.5265     1.2730    -1.5670    -0.0020    -0.0010    20.6267    41.2556     1.6660    14.6405    14.6392     0.0013   295.0000     9.8518     9.569
     66     0.0250     0.0250     1.0250      5.610      0.000  22200.000      6.000    41.2537   -14.1093   -36.7174     1.2730    -1.5670    -0.0020    -0.0010    20.6267    41.2556     1.6744    14.6405    14.6392     0.0013   295.0000     9.8225     9.526
     67     0.0300     0.0300     1.0299      5.604      0.000  22200.000      6.000    41.2537   -13.9291   -36.9044     1.2730    -1.5670    -0.0020    -0.0010    20.6267    41.2556     1.6826    14.6405    14.6392     0.0013   295.0000     9.8252     9.520
     68     0.0350     0.0350     1.0350      5.664      0.000  22200.000      6.000    41.2537   -13.7510   -37.0993     1.2730    -1.5670    -0.0020    -0.0010    20.6267    41.2556     1.6912    14.6405    14.6392     0.0013   295.0000     9.8252     9.520
     69     0.0400     0.0400     1.0400      5.664      0.000  22200.000      6.000    41.2537   -13.5768   -37.2922     1.2730    -1.5670    -0.0020    -0.0010    20.6267    41.2556     1.6997    14.6405    14.6392     0.0013   295.0000     9.8274     9.566
     70     0.0450     0.0450     1.0450      5.606      1.000  22200.000      6.000    41.2537   -13.4055   -37.4832     1.2730    -1.5670    -0.0020    -0.0010    20.6267    41.2556     1.7081    14.6405    14.6392     0.0013   295.0000     9.8321     9.529
     71     0.0500     0.0500     1.0500      5.615      0.000  22200.000      6.000    41.2537   -13.2382   -37.6800     1.2730    -1.5670    -0.0020    -0.0010    20.6267    41.2556     1.7167    14.6405    14.6392     0.0013   295.0000     9.8310     9.543
     72     0.0550     0.0550     1.0550      5.633      1.000  22200.000      6.000    41.2537   -13.0719   -37.8729     1.2730    -1.5670    -0.0020    -0.0010    20.6267    41.2556     1.7252    14.6405    14.6392     0.0013   295.0000     9.8279     9.609
     73     0.0600     0.0600     1.0600      5.645      1.000  22200.000      6.000    41.2537   -12.9104   -38.0698     1.2730    -1.5670    -0.0020    -0.0010    20.6267    41.2556     1.7338    14.6405    14.6392     0.0013   295.0000     9.8279     9.609
     74     0.0650     0.0650     1.0650      5.669      1.000  22200.000      6.000    41.2537   -12.7510   -38.2686     1.2730    -1.5670    -0.0020    -0.0010    20.6267    41.2556     1.7425    14.6405    14.6392     0.0013   295.0000     9.8240     9.526
     75     0.0700     0.0700     1.0700      5.685      0.000  22200.000      6.000    41.2537   -12.5955   -38.4654     1.2730    -1.5670    -0.0020    -0.0010    20.6267    41.2556     1.7511    14.6405    14.6392     0.0013   295.0000     9.8243     9.508
     76     0.0750     0.0750     1.0751      5.605      1.000  22200.000      6.000    41.2537   -12.4429   -38.6702     1.2730    -1.5670    -0.0020    -0.0010    20.6267    41.2556     1.7601    14.6405    14.6392     0.0013   295.0000     9.8204     9.513
     77     0.0800     0.0800     1.0800      5.681      0.000  22200.000      6.000    41.2537   -12.2913   -38.8641     1.2730    -1.5670    -0.0020    -0.0010    20.6267    41.2556     1.7686    14.6405    14.6392     0.0013   295.0000     9.8262     9.571
     78     0.0850     0.0850     1.0850      5.673      1.000  22200.000      6.000    41.2537   -12.1447   -39.0648     1.2730    -1.5670    -0.0020    -0.0010    20.6267    41.2556     1.7774    14.6405    14.6392     0.0013   295.0000     9.8262     9.571
     79     0.0900     0.0900     1.0900      5.535      5.000  22200.000      6.000    41.2537   -12.0010   -39.2686     1.2730    -1.5670    -0.0020    -0.0010    20.6267    41.2556     1.7863    14.6405    14.6392     0.0013   295.0000     9.8143     9.532
     80     0.0950     0.0950     1.0950      5.554      1.000  22200.000      6.000    41.2537   -11.8593   -39.4684     1.2730    -1.5670    -0.0020    -0.0010    20.6267    41.2556     1.7950    14.6405    14.6392     0.0013   295.0000     9.8140     9.568
     81     0.1000     0.1000     1.1000      5.597      2.000  22200.000      6.000    41.2537   -11.7205   -39.6741     1.2730    -1.5670    -0.0020    -0.0010    20.6267    41.2556     1.8040    14.6405    14.6392     0.0013   295.0000     9.8151     9.506
     82     0.1050     0.1050     1.1050      5.629      0.000  22200.000      6.000    41.2537   -11.5846   -39.8769     1.2730    -1.5670    -0.0020    -0.0010    20.6267    41.2556     1.8128    14.6405    14.6392     0.0013   295.0000     9.8151     9.506
     83     0.1100     0.1100     1.1100      5.678      0.000  22200.000      6.000    41.2537   -11.4508   -40.0816     1.2730    -1.5670    -0.0020    -0.0010    20.6267    41.2556     1.8218    14.6405    14.6392     0.0013   295.0000     9.8194     9.546
     84     0.1150     0.1150     1.1151      5.625      1.000  22200.000      6.000    41.2537   -11.3219   -40.2922     1.2730    -1.5670    -0.0020    -0.0010    20.6267    41.2556     1.8309    14.6405    14.6392     0.0013   295.0000     9.8095     9.564
     85     0.1200     0.1200     1.1200      5.688      2.000  22200.000      6.000    41.2537   -11.1929   -40.4950     1.2730    -1.5670    -0.0020    -0.0010    20.6267    41.2556     1.8398    14.6405    14.6392     0.0013   295.0000     9.8064     9.500
     86     0.1250     0.1250     1.1250      5.630      2.000  22200.000      6.000    41.2537   -11.0689   -40.7036     1.2730    -1.5670    -0.0020    -0.0010    20.6267    41.2556     1.8488    14.6405    14.6392     0.0013   295.0000     9.8105     9.589
     87     0.1300     0.1300     1.1300      5.576      1.000  22200.000      6.000    41.2537   -10.9469   -40.9113     1.2730    -1.5670    -0.0020    -0.0010    20.6267    41.2556     1.8579    14.6405    14.6392     0.0013   295.0000     9.8105     9.589
     88     0.1350     0.1350     1.1350      5.584      0.000  22200.000      6.000    41.2537   -10.8268   -41.1200     1.2730    -1.5670    -0.0020    -0.0010    20.6267    41.2556     1.8669    14.6405    14.6392     0.0013   295.0000     9.8092     9.513
     89     0.1400     0.1400     1.1400      5.698      1.000  22200.000      6.000    41.2537   -10.7096   -41.3316     1.2730    -1.5670    -0.0020    -0.0010    20.6267    41.2556     1.8761    14.6405    14.6392     0.0013   295.0000     9.8059     9.505
     90     0.1450     0.1450     1.1450      5.605      0.000  22200.000      6.000    41.2537   -10.5955   -41.5402     1.2730    -1.5670    -0.0020    -0.0010    20.6267    41.2556     1.8852    14.6405    14.6392     0.0013   295.0000     9.7992     9.506
     91     0.1500     0.1500     1.1501      5.655      1.000  22200.000      6.000    41.2537   -10.4823   -41.7558     1.2730    -1.5670    -0.0020    -0.0010    20.6267    41.2556     1.8945    14.6405    14.6392     0.0013   295.0000     9.8015     9.586
     92     0.1550     0.1550     1.1550      5.588      2.000  22200.000      6.000    41.2537   -10.3720   -41.9645     1.2730    -1.5670    -0.0020    -0.0010    20.6267    41.2556     1.9036    14.6405    14.6392     0.0013   295.0000     9.8015     9.586
     93     0.1600     0.1600     1.1600      5.637      1.000  22200.000      6.000    41.2537   -10.2657   -42.1790     1.2730    -1.5670    -0.0020    -0.0010    20.6267    41.2556     1.9129    14.6405    14.6392     0.0013   295.0000     9.8027     9.499
     94     0.1650     0.1650     1.1650      5.659      1.000  22200.000      6.000    41.2537   -10.1614   -42.3926     1.2730    -1.5670    -0.0020    -0.0010    20.6267    41.2556     1.9221    14.6405    14.6392     0.0013   295.0000     9.7933     9.498
     95     0.1700     0.1700     1.1700      5.642      2.000  22200.000      6.000    41.2537   -10.0591   -42.6072     1.2730    -1.5670    -0.0020    -0.0010    20.6267    41.2556     1.9314    14.6405    14.6392     0.0013   295.0000     9.7979     9.563
     96     0.1750     0.1750     1.1750      5.628      0.000  22200.000      6.000    41.2537    -9.9587   -42.8227     1.2730    -1.5670    -0.0020    -0.0010    20.6267    41.2556     1.9407    14.6405    14.6392     0.0013   295.0000     9.7979     9.563
     97     0.1800     0.1800     1.1800      5.616      2.000  22200.000      6.000    41.2537    -9.8612   -43.0383     1.2730    -1.5670    -0.0020    -0.0010    20.6267    41.2556     1.9500    14.6405    14.6392     0.0013   295.0000     9.7991     9.520
     98     0.1850     0.1850     1.1850      5.706      0.000  22200.000      6.000    41.2537    -9.7657   -43.2568     1.2730    -1.5670    -0.0020    -0.0010    20.6267    41.2556     1.9594    14.6405    14.6392     0.0013   295.0000     9.7916     9.550
     99     0.1900     0.1900     1.1900      5.594      2.000  22200.000      6.000    41.2537    -9.6722   -43.4723     1.2730    -1.5670    -0.0020    -0.0010    20.6267    41.2556     1.9687    14.6405    14.6392     0.0013   295.0000     9.7886     9.554
    100     0.1950     0.1950     1.1950      5.652      0.000  22200.000      6.000    41.2537    -9.5817   -43.6928     1.2730    -1.5670    -0.0020    -0.0010    20.6267    41.2556     1.9782    14.6405    14.6392     0.0013   295.0000     9.7922     9.515
    101     0.2000     0.2000     1.2000      5.625      4.000  22200.000      6.000    41.2537    -9.4941   -43.9103     1.2730    -1.5670    -0.0020    -0.0010    20.6267    41.2556     1.9876    14.6405    14.6392     0.0013   295.0000     9.7922     9.515
    102     0.2050     0.2050     1.2050      5.589      0.000  22200.000      6.000    41.2537    -9.4085   -44.1308     1.2730    -1.5670    -0.0020    -0.0010    20.6267    41.2556     1.9971    14.6405    14.6392     0.0013   295.0000     9.7932     9.494
    103     0.2100     0.2100     1.2100      5.569      1.000  22200.000      6.000    41.2537    -9.3238   -44.3513     1.2730    -1.5670    -0.0020    -0.0010    20.6267    41.2556     2.0065    14.6405    14.6392     0.0013   295.0000     9.7923     9.558
    104     0.2150     0.2150     1.2150      5.613      1.000  22200.000      6.000    41.2537    -9.2431   -44.5717     1.2730    -1.5670    -0.0020    -0.0010    20.6267    41.2556     2.0160    14.6405    14.6392     0.0013   295.0000     9.7805     9.480
    105     0.2200     0.2200     1.2200      5.659      0.000  22200.000      6.000    41.2537    -9.1624   -44.7942     1.2730    -1.5670    -0.0020    -0.0010    20.6267    41.2556     2.0255    14.6405    14.6392     0.0013   295.0000     9.7805     9.480
    106     0.2250     0.2250     1.2250      5.588      1.000  22200.000      6.000    41.2537    -9.0846   -45.0166     1.2730    -1.5670    -0.0020    -0.0010    20.6267    41.2556     2.0351    14.6405    14.6392     0.0013   295.0000     9.7903     9.513
    107     0.2300     0.2300     1.2300      5.681      0.000  22200.000      6.000    41.2537    -9.0098   -45.2410     1.2730    -1.5670    -0.0020    -0.0010    20.6267    41.2556     2.0447    14.6405    14.6392     0.0013   295.0000     9.8361     9.534
    108     0.2350     0.2350     1.2350      5.645      2.000  22200.000      6.000    41.2537    -8.9370   -45.4635     1.2730    -1.5670    -0.0020    -0.0010    20.6267    41.2556     2.0542    14.6405    14.6392     0.0013   295.0000     9.7728     9.470
    109     0.2400     0.2400     1.2400      5.556      0.000  22200.000      6.000    41.2537    -8.8642   -45.6908     1.2730    -1.5670    -0.0020    -0.0010    20.6267    41.2556     2.0639    14.6405    14.6392     0.0013   295.0000     9.7704     9.499
    110     0.2450     0.2450     1.2450      5.679      1.000  22200.000      6.000    41.2537    -8.7963   -45.9133     1.2730    -1.5670    -0.0020    -0.0010    20.6267    41.2556     2.0734    14.6405    14.6392     0.0013   295.0000     9.7704     9.499
    111     0.2501     0.2500     1.2501      5.669      0.000  22200.000      6.000    41.2537    -8.7283   -46.1436     1.2730    -1.5670    -0.0020    -0.0010    20.6267    41.2556     2.0833    14.6405    14.6392     0.0013   295.0000     9.7638     9.541
    112     0.2550     0.2550     1.2550      5.652      2.000  22200.000      6.000    41.2537    -8.6644   -46.3680     1.2730    -1.5670    -0.0020    -0.0010    20.6267    41.2556     2.0929    14.6405    14.6392     0.0013   295.0000     9.7640     9.485
    113     0.2600     0.2600     1.2600      5.665      2.000  22200.000      6.000    41.2537    -8.6004   -46.5934     1.2730    -1.5670    -0.0020    -0.0010    20.6267    41.2556     2.1025    14.6405    14.6392     0.0013   295.0000     9.7548     9.483
    114     0.2650     0.2650     1.2650      5.686      2.000  22200.000      6.000    41.2537    -8.5394   -46.8237     1.2730    -1.5670    -0.0020    -0.0010    20.6267    41.2556     2.1123    14.6405    14.6392     0.0013   295.0000     9.7548     9.483
    115     0.2700     0.2700     1.2700      5.675      0.000  22200.000      6.000    41.2537    -8.4803   -47.0511     1.2730    -1.5670    -0.0020    -0.0010    20.6267    41.2556     2.1219    14.6405    14.6392     0.0013   295.0000     9.8246     9.538
    116     0.2750     0.2750     1.2750      5.624      0.000  22200.000      6.000    41.2537    -8.4222   -47.2814     1.2730    -1.5670    -0.0020    -0.0010    20.6267    41.2556     2.1317    14.6405    14.6392     0.0013   295.0000     9.7520     9.488
    117     0.2800     0.2800     1.2800      5.634      1.000  22200.000      6.000    41.2537    -8.3671   -47.5107     1.2730    -1.5670    -0.0020    -0.0010    20.6267    41.2556     2.1415    14.6405    14.6392     0.0013   295.0000     9.7399     9.467
    118     0.2850     0.2850     1.2850      5.614      1.000  22200.000      6.000    41.2537    -8.3130   -47.7410     1.2730    -1.5670    -0.0020    -0.0010    20.6267    41.2556     2.1513    14.6405    14.6392     0.0013   295.0000     9.7414     9.592
    119     0.2900     0.2900     1.2900      5.627      0.000  22200.000      6.000    41.2537    -8.2618   -47.9713     1.2730    -1.5670    -0.0020    -0.0010    20.6267    41.2556     2.1610    14.6405    14.6392     0.0013   295.0000     9.7414     9.592
    120     0.2950     0.2950     1.2950      5.650      0.000  22200.000      6.000    41.2537    -8.2116   -48.2056     1.2730    -1.5670    -0.0020    -0.0010    20.6267    41.2556     2.1709    14.6405    14.6392     0.0013   295.0000     9.7376     9.486
    121     0.3000     0.3000     1.3000      5.598      1.000  22200.000      6.000    41.2537    -8.1634   -48.4369     1.2730    -1.5670    -0.0020    -0.0010    20.6267    41.2556     2.1807    14.6405    14.6392     0.0013   295.0000     9.7286     9.469
    122     0.3050     0.3050     1.3050      5.684      1.000  22200.000      6.000    41.2537    -8.1171   -48.6721     1.2730    -1.5670    -0.0020    -0.0010    20.6267    41.2556     2.1907    14.6405    14.6392     0.0013   295.0000     9.7268     9.494
    123     0.3100     0.3100     1.3100      5.618      1.000  22200.000      6.000    41.2537    -8.0728   -48.9034     1.2730    -1.5670    -0.0020    -0.0010    20.6267    41.2556     2.2005    14.6405    14.6392     0.0013   295.0000     9.7268     9.494
    124     0.3150     0.3150     1.3150      5.654      1.000  22200.000      6.000    41.2537    -8.0295   -49.1377     1.2730    -1.5670    -0.0020    -0.0010    20.6267    41.2556     2.2103    14.6405    14.6392     0.0013   295.0000     9.7186     9.468
    125     0.3200     0.3200     1.3200      5.643      1.000  22200.000      6.000    41.2537    -7.9882   -49.3749     1.2730    -1.5670    -0.0020    -0.0010    20.6267    41.2556     2.2203    14.6405    14.6392     0.0013   295.0000     9.7162     9.465
    126     0.3250     0.3250     1.3250      5.728      0.000  22200.000      6.000    41.2537    -7.9488   -49.6082     1.2730    -1.5670    -0.0020    -0.0010    20.6267    41.2556     2.2302    14.6405    14.6392     0.0013   295.0000     9.7121     9.493
    127     0.3300     0.3300     1.3300      5.692      1.000  22200.000      6.000    41.2537    -7.9114   -49.8473     1.2730    -1.5670    -0.0020    -0.0010    20.6267    41.2556     2.2402    14.6405    14.6392     0.0013   295.0000     9.7121     9.493
    128     0.3350     0.3350     1.3350      5.599      2.000  22200.000      6.000    41.2537    -7.8760   -50.0826     1.2730    -1.5670    -0.0020    -0.0010    20.6267    41.2556     2.2501    14.6405    14.6392     0.0013   295.0000     9.7143     9.481
    129     0.3400     0.3399     1.3400      5.617      1.000  22200.000      6.000    41.2537    -7.8425   -50.3188     1.2730    -1.5670    -0.0020    -0.0010    20.6267    41.2556     2.2601    14.6405    14.6392     0.0013   295.0000     9.7177     9.469
    130     0.3450     0.3450     1.3450      5.607      0.000  22200.000      6.000    41.2537    -7.8081   -50.5570     1.2730    -1.5670    -0.0020    -0.0010    20.6267    41.2556     2.2701    14.6405    14.6392     0.0013   295.0000     9.7116     9.488
    131     0.3500     0.3500     1.3500      5.674      0.000  22200.000      6.000    41.2537    -7.7785   -50.7961     1.2730    -1.5670    -0.0020    -0.0010    20.6267    41.2556     2.2801    14.6405    14.6392     0.0013   295.0000     9.7091     9.450
    132     0.3550     0.3550     1.3550      5.669      2.000  22200.000      6.000    41.2537    -7.7480   -51.0373     1.2730    -1.5670    -0.0020    -0.0010    20.6267    41.2556     2.2902    14.6405    14.6392     0.0013   295.0000     9.7091     9.450
    133     0.3600     0.3600     1.3600      5.684      1.000  22200.000      6.000    41.2537    -7.7205   -51.2755     1.2730    -1.5670    -0.0020    -0.0010    20.6267    41.2556     2.3002    14.6405    14.6392     0.0013   295.0000     9.7116     9.481
    134     0.3650     0.3650     1.3650      5.674      0.000  22200.000      6.000    41.2537    -7.6939   -51.5176     1.2730    -1.5670    -0.0020    -0.0010    20.6267    41.2556     2.3103    14.6405    14.6392     0.0013   295.0000     9.7052     9.491
    135     0.3701     0.3700     1.3700      5.661      2.000  22200.000      6.000    41.2537    -7.6683   -51.7587     1.2730    -1.5670    -0.0020    -0.0010    20.6267    41.2556     2.3203    14.6405    14.6392     0.0013   295.0000     9.7012     9.477
    136     0.3749     0.3749     1.3749      5.560      1.000  22200.000      6.000    41.2537    -7.6476   -51.9969     1.2730    -1.5670    -0.0020    -0.0010    20.6267    41.2556     2.3303    14.6405    14.6392     0.0013   295.0000     9.7012     9.477
    137     0.3801     0.3800     1.3800      5.677      1.000  22200.000      6.000    41.2537    -7.6240   -52.2430     1.2730    -1.5670    -0.0020    -0.0010    20.6267    41.2556     2.3405    14.6405    14.6392     0.0013   295.0000     9.7028     9.471
    138     0.3850     0.3850     1.3850      5.614      1.000  22200.000      6.000    41.2537    -7.6043   -52.4841     1.2730    -1.5670    -0.0020    -0.0010    20.6267    41.2556     2.3506    14.6405    14.6392     0.0013   295.0000     9.7027     9.476
    139     0.3900     0.3900     1.3900      5.632      2.000  22200.000      6.000    41.2537    -7.5876   -52.7292     1.2730    -1.5670    -0.0020    -0.0010    20.6267    41.2556     2.3608    14.6405    14.6392     0.0013   295.0000     9.7025     9.471
    140     0.3950     0.3950     1.3950      5.642      1.000  22200.000      6.000    41.2537    -7.5689   -52.9723     1.2730    -1.5670    -0.0020    -0.0010    20.6267    41.2556     2.3709    14.6405    14.6392     0.0013   295.0000     9.7025     9.471
    141     0.4000     0.4000     1.4000      5.621      1.000  22200.000      6.000    41.2537    -7.5541   -53.2174     1.2730    -1.5670    -0.0020    -0.0010    20.6267    41.2556     2.3810    14.6405    14.6392     0.0013   295.0000     9.7037     9.510
    142     0.4050     0.4050     1.4050      5.606      3.000  22200.000      6.000    41.2537    -7.5394   -53.4625     1.2730    -1.5670    -0.0020    -0.0010    20.6267    41.2556     2.3912    14.6405    14.6392     0.0013   295.0000     9.7015     9.474
    143     0.4101     0.4101     1.4101      5.648      3.000  22200.000      6.000    41.2537    -7.5276   -53.7135     1.2730    -1.5670    -0.0020    -0.0010    20.6267    41.2556     2.4016    14.6405    14.6392     0.0013   295.0000     9.6954     9.454
    144     0.4150     0.4149     1.4150      5.591      2.000  22200.000      6.000    41.2537    -7.5167   -53.9536     1.2730    -1.5670    -0.0020    -0.0010    20.6267    41.2556     2.4115    14.6405    14.6392     0.0013   295.0000     9.7016     9.489
    145     0.4200     0.4200     1.4200      5.699      0.000  22200.000      6.000    41.2537    -7.5069   -54.2026     1.2730    -1.5670    -0.0020    -0.0010    20.6267    41.2556     2.4218    14.6405    14.6392     0.0013   295.0000     9.7016     9.489
    146     0.4250     0.4250     1.4250      5.652      0.000  22200.000      6.000    41.2537    -7.4980   -54.4507     1.2730    -1.5670    -0.0020    -0.0010    20.6267    41.2556     2.4321    14.6405    14.6392     0.0013   295.0000     9.6940     9.468
    147     0.4300     0.4300     1.4300      5.601      1.000  22200.000      6.000    41.2537    -7.4921   -54.6987     1.2730    -1.5670    -0.0020    -0.0010    20.6267    41.2556     2.4423    14.6405    14.6392     0.0013   295.0000     9.6957     9.462
    148     0.4349     0.4348     1.4350      5.587      1.000  22200.000      6.000    41.2537    -7.4921   -54.9467     1.2730    -1.5670    -0.0020    -0.0010    20.6267    41.2556     2.4525    14.6405    14.6392     0.0013   295.0000     9.7006     9.482
    149     0.4400     0.4400     1.4400      5.626      2.000  22200.000      6.000    41.2537    -7.4823   -55.1977     1.2730    -1.5670    -0.0020    -0.0010    20.6267    41.2556     2.4628    14.6405    14.6392     0.0013   295.0000     9.7006     9.482
    150     0.4449     0.4449     1.4450      5.613      1.000  22200.000      6.000    41.2537    -7.4823   -55.4458     1.2730    -1.5670    -0.0020    -0.0010    20.6267    41.2556     2.4730    14.6405    14.6392     0.0013   295.0000     9.7037     9.476
    151     0.4499     0.4499     1.4500      5.579      1.000  22200.000      6.000    41.2537    -7.4823   -55.6977     1.2730    -1.5670    -0.0020    -0.0010    20.6267    41.2556     2.4833    14.6405    14.6392     0.0013   295.0000     9.6939     9.426
    152     0.4549     0.4548     1.4550      5.570      2.000  22200.000      6.000    41.2537    -7.4823   -55.9477     1.2730    -1.5670    -0.0020    -0.0010    20.6267    41.2556     2.4936    14.6405    14.6392     0.0013   295.0000     9.6959     9.440
    153     0.4600     0.4599     1.4601      5.629      1.000  22200.000      6.000    41.2537    -7.4823   -56.2017     1.2730    -1.5670    -0.0020    -0.0010    20.6267    41.2556     2.5040    14.6405    14.6392     0.0013   295.0000     9.6959     9.440
    154     0.4650     0.4649     1.4650      5.614      0.000  22200.000      6.000    41.2537    -7.4823   -56.4507     1.2730    -1.5670    -0.0020    -0.0010    20.6267    41.2556     2.5142    14.6405    14.6392     0.0013   295.0000     9.6989     9.474
    155     0.4701     0.4701     1.4700      5.593      1.000  22200.000      6.000    41.2537    -7.4833   -56.7066     1.2730    -1.5670    -0.0020    -0.0010    20.6267    41.2556     2.5246    14.6405    14.6392     0.0013   295.0000     9.6901     9.451
    156     0.4751     0.4751     1.4749      5.546      3.000  22200.000      6.000    41.2537    -7.4833   -56.9566     1.2730    -1.5670    -0.0020    -0.0010    20.6267    41.2556     2.5348    14.6405    14.6392     0.0013   295.0000     9.6970     9.457
    157     0.4801     0.4800     1.4800      5.603      3.000  22200.000      6.000    41.2537    -7.4970   -57.2154     1.2730    -1.5670    -0.0020    -0.0010    20.6267    41.2556     2.5454    14.6405    14.6392     0.0013   295.0000     9.6970     9.457
    158     0.4850     0.4850     1.4850      5.678     46.000  22200.000      6.000    41.2537    -7.5039   -57.4674     1.2730    -1.5670    -0.0020    -0.0010    20.6267    41.2556     2.5556    14.6405    14.6392     0.0013   295.0000     9.6931     9.475
    159     0.4900     0.4900     1.4900      5.663    254.000  22200.000      6.000    41.2537    -7.5128   -57.7233     1.2730    -1.5670    -0.0020    -0.0010    20.6267    41.2556     2.5660    14.6405    14.6392     0.0013   295.0000     9.6890     9.473
    160     0.4950     0.4949     1.4950      5.656   1183.000  22200.000      6.000    41.2537    -7.5236   -57.9772     1.2730    -1.5670    -0.0020    -0.0010    20.6267    41.2556     2.5764    14.6405    14.6392     0.0013   295.0000     9.6939     9.463
    161     0.5000     0.5000     1.5000      5.632   1703.000  22200.000      6.000    41.2537    -7.5354   -58.2371     1.2730    -1.5670    -0.0020    -0.0010    20.6267    41.2556     2.5869    14.6405    14.6392     0.0013   295.0000     9.6920     9.504
    162     0.5050     0.5050     1.5050      5.656   1185.000  22200.000      6.000    41.2537    -7.5472   -58.4920     1.2730    -1.5670    -0.0020    -0.0010    20.6267    41.2556     2.5972    14.6405    14.6392     0.0013   295.0000     9.6920     9.504
    163     0.5100     0.5100     1.5100      5.628    265.000  22200.000      6.000    41.2537    -7.5620   -58.7509     1.2730    -1.5670    -0.0020    -0.0010    20.6267    41.2556     2.6077    14.6405    14.6392     0.0013   295.0000     9.6923     9.463
    164     0.5150     0.5150     1.5150      5.595     27.000  22200.000      6.000    41.2537    -7.5768   -59.0087     1.2730    -1.5670    -0.0020    -0.0010    20.6267    41.2556     2.6181    14.6405    14.6392     0.0013   295.0000     9.6937     9.469
    165     0.5200     0.5200     1.5200      5.662      3.000  22200.000      6.000    41.2537    -7.5935   -59.2676     1.2730    -1.5670    -0.0020    -0.0010    20.6267    41.2556     2.6286    14.6405    14.6392     0.0013   295.0000     9.6957     9.493
    166     0.5250     0.5250     1.5250      5.652      0.000  22200.000      6.000    41.2537    -7.6102   -59.5265     1.2730    -1.5670    -0.0020    -0.0010    20.6267    41.2556     2.6390    14.6405    14.6392     0.0013   295.0000     9.6957     9.493
    167     0.5300     0.5300     1.5300      5.631      0.000  22200.000      6.000    41.2537    -7.6289   -59.7873     1.2730    -1.5670    -0.0020    -0.0010    20.6267    41.2556     2.6495    14.6405    14.6392     0.0013   295.0000     9.6915     9.471
    168     0.5349     0.5349     1.5349      5.616      1.000  22200.000      6.000    41.2537    -7.6496   -60.0442     1.2730    -1.5670    -0.0020    -0.0010    20.6267    41.2556     2.6598    14.6405    14.6392     0.0013   295.0000     9.6945     9.474
    169     0.5401     0.5400     1.5400      5.656      1.000  22200.000      6.000    41.2537    -7.6703   -60.3099     1.2730    -1.5670    -0.0020    -0.0010    20.6267    41.2556     2.6705    14.6405    14.6392     0.0013   295.0000     9.6987     9.471
    170     0.5450     0.5450     1.5450      5.611      0.000  22200.000      6.000    41.2537    -7.6919   -60.5698     1.2730    -1.5670    -0.0020    -0.0010    20.6267    41.2556     2.6809    14.6405    14.6392     0.0013   295.0000     9.6987     9.471
    171     0.5500     0.5500     1.5500      5.628      0.000  22200.000      6.000    41.2537    -7.7156   -60.8326     1.2730    -1.5670    -0.0020    -0.0010    20.6267    41.2556     2.6914    14.6405    14.6392     0.0013   295.0000     9.6884     9.479
    172     0.5551     0.5550     1.5551      5.628      1.000  22200.000      6.000    41.2537    -7.7402   -61.0983     1.2730    -1.5670    -0.0020    -0.0010    20.6267    41.2556     2.7020    14.6405    14.6392     0.0013   295.0000     9.6879     9.466
    173     0.5600     0.5600     1.5600      5.657      2.000  22200.000      6.000    41.2537    -7.7657   -61.3601     1.2730    -1.5670    -0.0020    -0.0010    20.6267    41.2556     2.7125    14.6405    14.6392     0.0013   295.0000     9.6934     9.494
    174     0.5650     0.5650     1.5650      5.598      1.000  22200.000      6.000    41.2537    -7.7923   -61.6229     1.2730    -1.5670    -0.0020    -0.0010    20.6267    41.2556     2.7230    14.6405    14.6392     0.0013   295.0000     9.6934     9.494
    175     0.5700     0.5699     1.5700      5.573      1.000  22200.000      6.000    41.2537    -7.8209   -61.8867     1.2730    -1.5670    -0.0020    -0.0010    20.6267    41.2556     2.7335    14.6405    14.6392     0.0013   295.0000     9.6930     9.483
    176     0.5751     0.5750     1.5750      5.614      1.000  22200.000      6.000    41.2537    -7.8484   -62.1534     1.2730    -1.5670    -0.0020    -0.0010    20.6267    41.2556     2.7441    14.6405    14.6392     0.0013   295.0000     9.6980     9.468
    177     0.5799     0.5799     1.5800      5.612      2.000  22200.000      6.000    41.2537    -7.8799   -62.4162     1.2730    -1.5670    -0.0020    -0.0010    20.6267    41.2556     2.7545    14.6405    14.6392     0.0013   295.0000     9.6910     9.462
    178     0.5851     0.5850     1.5850      5.590      2.000  22200.000      6.000    41.2537    -7.9094   -62.6869     1.2730    -1.5670    -0.0020    -0.0010    20.6267    41.2556     2.7652    14.6405    14.6392     0.0013   295.0000     9.6939     9.481
    179     0.5900     0.5899     1.5900      5.579      2.000  22200.000      6.000    41.2537    -7.9429   -62.9517     1.2730    -1.5670    -0.0020    -0.0010    20.6267    41.2556     2.7757    14.6405    14.6392     0.0013   295.0000     9.6939     9.481
    180     0.5950     0.5950     1.5950      5.625      0.000  22200.000      6.000    41.2537    -7.9764   -63.2204     1.2730    -1.5670    -0.0020    -0.0010    20.6267    41.2556     2.7863    14.6405    14.6392     0.0013   295.0000     9.6945     9.465
    181     0.6000     0.6000     1.6000      5.613      1.000  22200.000      6.000    41.2537    -8.0089   -63.4881     1.2730    -1.5670    -0.0020    -0.0010    20.6267    41.2556     2.7969    14.6405    14.6392     0.0013   295.0000     9.6945     9.480
    182     0.6050     0.6050     1.6050      5.602      1.000  22200.000      6.000    41.2537    -8.0453   -63.7578     1.2730    -1.5670    -0.0020    -0.0010    20.6267    41.2556     2.8075    14.6405    14.6392     0.0013   295.0000     9.7012     9.478
    183     0.6099     0.6099     1.6100      5.681      0.000  22200.000      6.000    41.2537    -8.0827   -64.0245     1.2730    -1.5670    -0.0020    -0.0010    20.6267    41.2556     2.8180    14.6405    14.6392     0.0013   295.0000     9.7012     9.478
    184     0.6151     0.6150     1.6150      5.597      1.000  22200.000      6.000    41.2537    -8.1181   -64.2981     1.2730    -1.5670    -0.0020    -0.0010    20.6267    41.2556     2.8288    14.6405    14.6392     0.0013   295.0000     9.7053     9.469
    185     0.6200     0.6200     1.6200      5.623      1.000  22200.000      6.000    41.2537    -8.1575   -64.5678     1.2730    -1.5670    -0.0020    -0.0010    20.6267    41.2556     2.8394    14.6405    14.6392     0.0013   295.0000     9.7020     9.455
    186     0.6250     0.6249     1.6250      5.623      1.000  22200.000      6.000    41.2537    -8.1969   -64.8375     1.2730    -1.5670    -0.0020    -0.0010    20.6267    41.2556     2.8500    14.6405    14.6392     0.0013   295.0000     9.7104     9.503
    187     0.6300     0.6300     1.6300      5.624      0.000  22200.000      6.000    41.2537    -8.2372   -65.1111     1.2730    -1.5670    -0.0020    -0.0010    20.6267    41.2556     2.8607    14.6405    14.6392     0.0013   295.0000     9.7104     9.503
    188     0.6350     0.6350     1.6350      5.596      3.000  22200.000      6.000    41.2537    -8.2785   -65.3828     1.2730    -1.5670    -0.0020    -0.0010    20.6267    41.2556     2.8713    14.6405    14.6392     0.0013   295.0000     9.7101     9.461
    189     0.6401     0.6400     1.6400      5.661      1.000  22200.000      6.000    41.2537    -8.3209   -65.6583     1.2730    -1.5670    -0.0020    -0.0010    20.6267    41.2556     2.8820    14.6405    14.6392     0.0013   295.0000     9.7047     9.455
    190     0.6450     0.6450     1.6450      5.706      1.000  22200.000      6.000    41.2537    -8.3642   -65.9290     1.2730    -1.5670    -0.0020    -0.0010    20.6267    41.2556     2.8926    14.6405    14.6392     0.0013   295.0000     9.7070     9.468
    191     0.6500     0.6500     1.6500      5.578      0.000  22200.000      6.000    41.2537    -8.4094   -66.2056     1.2730    -1.5670    -0.0020    -0.0010    20.6267    41.2556     2.9033    14.6405    14.6392     0.0013   295.0000     9.7070     9.468
    192     0.6550     0.6549     1.6550      5.597      1.000  22200.000      6.000    41.2537    -8.4547   -66.4782     1.2730    -1.5670    -0.0020    -0.0010    20.6267    41.2556     2.9139    14.6405    14.6392     0.0013   295.0000     9.7108     9.469
    193     0.6601     0.6600     1.6600      5.609      2.000  22200.000      6.000    41.2537    -8.5000   -66.7568     1.2730    -1.5670    -0.0020    -0.0010    20.6267    41.2556     2.9247    14.6405    14.6392     0.0013   295.0000     9.7074     9.492
    194     0.6650     0.6650     1.6650      5.675      0.000  22200.000      6.000    41.2537    -8.5482   -67.0304     1.2730    -1.5670    -0.0020    -0.0010    20.6267    41.2556     2.9353    14.6405    14.6392     0.0013   295.0000     9.7112     9.480
    195     0.6700     0.6700     1.6700      5.573      0.000  22200.000      6.000    41.2537    -8.5974   -67.3089     1.2730    -1.5670    -0.0020    -0.0010    20.6267    41.2556     2.9461    14.6405    14.6392     0.0013   295.0000     9.7112     9.480
    196     0.6750     0.6750     1.6750      5.685      0.000  22200.000      6.000    41.2537    -8.6457   -67.5855     1.2730    -1.5670    -0.0020    -0.0010    20.6267    41.2556     2.9567    14.6405    14.6392     0.0013   295.0000     9.7089     9.463
    197     0.6800     0.6799     1.6800      5.639      0.000  22200.000      6.000    41.2537    -8.6978   -67.8631     1.2730    -1.5670    -0.0020    -0.0010    20.6267    41.2556     2.9674    14.6405    14.6392     0.0013   295.0000     9.7082     9.464
    198     0.6850     0.6850     1.6850      5.688      1.000  22200.000      6.000    41.2537    -8.7480   -68.1426     1.2730    -1.5670    -0.0020    -0.0010    20.6267    41.2556     2.9782    14.6405    14.6392     0.0013   295.0000     9.7074     9.461
    199     0.6901     0.6900     1.6900      5.597      0.000  22200.000      6.000    41.2537    -8.7992   -68.4221     1.2730    -1.5670    -0.0020    -0.0010    20.6267    41.2556     2.9889    14.6405    14.6392     0.0013   295.0000     9.7093     9.483
    200     0.6951     0.6951     1.6951      5.661      0.000  22200.000      6.000    41.2537    -8.8543   -68.7076     1.2730    -1.5670    -0.0020    -0.0010    20.6267    41.2556     2.9999    14.6405    14.6392     0.0013   295.0000     9.7093     9.483
    201     0.7000     0.6999     1.7000      5.600      0.000  22200.000      6.000    41.2537    -8.9075   -68.9812     1.2730    -1.5670    -0.0020    -0.0010    20.6267    41.2556     3.0103    14.6405    14.6392     0.0013   295.0000     9.7046     9.474
    202     0.7050     0.7050     1.7050      5.630      0.000  22200.000      6.000    41.2537    -8.9636   -69.2656     1.2730    -1.5670    -0.0020    -0.0010    20.6267    41.2556     3.0212    14.6405    14.6392     0.0013   295.0000     9.7110     9.465
    203     0.7100     0.7100     1.7100      5.645      0.000  22200.000      6.000    41.2537    -9.0187   -69.5461     1.2730    -1.5670    -0.0020    -0.0010    20.6267    41.2556     3.0319    14.6405    14.6392     0.0013   295.0000     9.7078     9.479
    204     0.7150     0.7149     1.7150      5.583      0.000  22200.000      6.000    41.2537    -9.0768   -69.8286     1.2730    -1.5670    -0.0020    -0.0010    20.6267    41.2556     3.0427    14.6405    14.6392     0.0013   295.0000     9.7078     9.479
    205     0.7201     0.7200     1.7200      5.620      0.000  22200.000      6.000    41.2537    -9.1329   -70.1121     1.2730    -1.5670    -0.0020    -0.0010    20.6267    41.2556     3.0534    14.6405    14.6392     0.0013   295.0000     9.7133     9.452
    206     0.7250     0.7250     1.7250      5.594      1.000  22200.000      6.000    41.2537    -9.1929   -70.3965     1.2730    -1.5670    -0.0020    -0.0010    20.6267    41.2556     3.0642    14.6405    14.6392     0.0013   295.0000     9.7077     9.454
    207     0.7300     0.7300     1.7300      5.683      1.000  22200.000      6.000    41.2537    -9.2530   -70.6810     1.2730    -1.5670    -0.0020    -0.0010    20.6267    41.2556     3.0750    14.6405    14.6392     0.0013   295.0000     9.7068     9.498
    208     0.7350     0.7350     1.7350      5.655      1.000  22200.000      6.000    41.2537    -9.3130   -70.9664     1.2730    -1.5670    -0.0020    -0.0010    20.6267    41.2556     3.0858    14.6405    14.6392     0.0013   295.0000     9.7068     9.498
    209     0.7400     0.7399     1.7400      5.664      1.000  22200.000      6.000    41.2537    -9.3760   -71.2528     1.2730    -1.5670    -0.0020    -0.0010    20.6267    41.2556     3.0966    14.6405    14.6392     0.0013   295.0000     9.7086     9.475
    210     0.7450     0.7449     1.7450      5.673      3.000  22200.000      6.000    41.2537    -9.4380   -71.5373     1.2730    -1.5670    -0.0020    -0.0010    20.6267    41.2556     3.1073    14.6405    14.6392     0.0013   295.0000     9.7102     9.452
    211     0.7500     0.7500     1.7500      5.611      5.000  22200.000      6.000    41.2537    -9.5010   -71.8267     1.2730    -1.5670    -0.0020    -0.0010    20.6267    41.2556     3.1182    14.6405    14.6392     0.0013   295.0000     9.7212     9.485
    212     0.7550     0.7550     1.7550      5.634      6.000  22200.000      6.000    41.2537    -9.5650   -72.1150     1.2730    -1.5670    -0.0020    -0.0010    20.6267    41.2556     3.1290    14.6405    14.6392     0.0013   295.0000     9.7212     9.485
    213     0.7600     0.7599     1.7600      5.616      2.000  22200.000      6.000    41.2537    -9.6299   -72.4024     1.2730    -1.5670    -0.0020    -0.0010    20.6267    41.2556     3.1398    14.6405    14.6392     0.0013   295.0000     9.7169     9.501
    214     0.7651     0.7650     1.7650      5.652      1.000  22200.000      6.000    41.2537    -9.6959   -72.6938     1.2730    -1.5670    -0.0020    -0.0010    20.6267    41.2556     3.1507    14.6405    14.6392     0.0013   295.0000     9.7100     9.460
    215     0.7700     0.7700     1.7700      5.722      1.000  22200.000      6.000    41.2537    -9.7618   -72.9812     1.2730    -1.5670    -0.0020    -0.0010    20.6267    41.2556     3.1614    14.6405    14.6392     0.0013   295.0000     9.7175     9.466
    216     0.7750     0.7750     1.7750      5.595      2.000  22200.000      6.000    41.2537    -9.8307   -73.2745     1.2730    -1.5670    -0.0020    -0.0010    20.6267    41.2556     3.1723    14.6405    14.6392     0.0013   295.0000     9.7152     9.489
    217     0.7800     0.7800     1.7800      5.616      0.000  22200.000      6.000    41.2537    -9.8996   -73.5658     1.2730    -1.5670    -0.0020    -0.0010    20.6267    41.2556     3.1832    14.6405    14.6392     0.0013   295.0000     9.7152     9.489
    218     0.7851     0.7850     1.7850      5.608      0.000  22200.000      6.000    41.2537    -9.9685   -73.8582     1.2730    -1.5670    -0.0020    -0.0010    20.6267    41.2556     3.1940    14.6405    14.6392     0.0013   295.0000     9.7183     9.463
    219     0.7900     0.7900     1.7900      5.609      1.000  22200.000      6.000    41.2537   -10.0394   -74.1505     1.2730    -1.5670    -0.0020    -0.0010    20.6267    41.2556     3.2049    14.6405    14.6392     0.0013   295.0000     9.7112     9.474
    220     0.7950     0.7950     1.7950      5.632      0.000  22200.000      6.000    41.2537   -10.1102   -74.4438     1.2730    -1.5670    -0.0020    -0.0010    20.6267    41.2556     3.2157    14.6405    14.6392     0.0013   295.0000     9.7162     9.486
    221     0.8001     0.8000     1.8000      5.644      0.000  22200.000      6.000    41.2537   -10.1831   -74.7400     1.2730    -1.5670    -0.0020    -0.0010    20.6267    41.2556     3.2266    14.6405    14.6392     0.0013   295.0000     9.7162     9.486
    222     0.8049     0.8049     1.8050      5.641      0.000  22200.000      6.000    41.2537   -10.2579   -75.0324     1.2730    -1.5670    -0.0020    -0.0010    20.6267    41.2556     3.2374    14.6405    14.6392     0.0013   295.0000     9.7090     9.450
    223     0.8101     0.8100     1.8100      5.655      0.000  22200.000      6.000    41.2537   -10.3287   -75.3296     1.2730    -1.5670    -0.0020    -0.0010    20.6267    41.2556     3.2483    14.6405    14.6392     0.0013   295.0000     9.7086     9.462
    224     0.8151     0.8150     1.8150      5.628      0.000  22200.000      6.000    41.2537   -10.4045   -75.6269     1.2730    -1.5670    -0.0020    -0.0010    20.6267    41.2556     3.2592    14.6405    14.6392     0.0013   295.0000     9.7128     9.506
    225     0.8200     0.8199     1.8200      5.716      1.000  22200.000      6.000    41.2537   -10.4803   -75.9221     1.2730    -1.5670    -0.0020    -0.0010    20.6267    41.2556     3.2700    14.6405    14.6392     0.0013   295.0000     9.7128     9.506
    226     0.8251     0.8250     1.8250      5.657      1.000  22200.000      6.000    41.2537   -10.5571   -76.2253     1.2730    -1.5670    -0.0020    -0.0010    20.6267    41.2556     3.2811    14.6405    14.6392     0.0013   295.0000     9.7073     9.470
    227     0.8300     0.8300     1.8300      5.643      0.000  22200.000      6.000    41.2537   -10.6339   -76.5206     1.2730    -1.5670    -0.0020    -0.0010    20.6267    41.2556     3.2919    14.6405    14.6392     0.0013   295.0000     9.7179     9.471
    228     0.8350     0.8350     1.8350      5.644      1.000  22200.000      6.000    41.2537   -10.7116   -76.8198     1.2730    -1.5670    -0.0020    -0.0010    20.6267    41.2556     3.3028    14.6405    14.6392     0.0013   295.0000     9.7053     9.453
    229     0.8400     0.8400     1.8400      5.545      1.000  22200.000      6.000    41.2537   -10.7913   -77.1209     1.2730    -1.5670    -0.0020    -0.0010    20.6267    41.2556     3.3137    14.6405    14.6392     0.0013   295.0000     9.7053     9.453
    230     0.8451     0.8450     1.8450      5.609      2.000  22200.000      6.000    41.2537   -10.8711   -77.4221     1.2730    -1.5670    -0.0020    -0.0010    20.6267    41.2556     3.3246    14.6405    14.6392     0.0013   295.0000     9.7091     9.470
    231     0.8501     0.8500     1.8500      5.627      0.000  22200.000      6.000    41.2537   -10.9518   -77.7243     1.2730    -1.5670    -0.0020    -0.0010    20.6267    41.2556     3.3356    14.6405    14.6392     0.0013   295.0000     9.6995     9.447
    232     0.8550     0.8549     1.8550      5.644      0.000  22200.000      6.000    41.2537   -11.0344   -78.0265     1.2730    -1.5670    -0.0020    -0.0010    20.6267    41.2556     3.3465    14.6405    14.6392     0.0013   295.0000     9.7090     9.451
    233     0.8601     0.8600     1.8600      5.616      0.000  22200.000      6.000    41.2537   -11.1171   -78.3316     1.2730    -1.5670    -0.0020    -0.0010    20.6267    41.2556     3.3574    14.6405    14.6392     0.0013   295.0000     9.7277     9.491
    234     0.8650     0.8650     1.8650      5.614      1.000  22200.000      6.000    41.2537   -11.1998   -78.6347     1.2730    -1.5670    -0.0020    -0.0010    20.6267    41.2556     3.3683    14.6405    14.6392     0.0013   295.0000     9.7277     9.491
    235     0.8700     0.8700     1.8700      5.572      1.000  22200.000      6.000    41.2537   -11.2835   -78.9389     1.2730    -1.5670    -0.0020    -0.0010    20.6267    41.2556     3.3792    14.6405    14.6392     0.0013   295.0000     9.7002     9.463
    236     0.8751     0.8751     1.8750      5.650      0.000  22200.000      6.000    41.2537   -11.3681   -79.2479     1.2730    -1.5670    -0.0020    -0.0010    20.6267    41.2556     3.3903    14.6405    14.6392     0.0013   295.0000     9.7172     9.459
    237     0.8800     0.8800     1.8800      5.652      0.000  22200.000      6.000    41.2537   -11.4547   -79.5520     1.2730    -1.5670    -0.0020    -0.0010    20.6267    41.2556     3.4012    14.6405    14.6392     0.0013   295.0000     9.7282     9.483
    238     0.8850     0.8850     1.8850      5.689      1.000  22200.000      6.000    41.2537   -11.5413   -79.8591     1.2730    -1.5670    -0.0020    -0.0010    20.6267    41.2556     3.4121    14.6405    14.6392     0.0013   295.0000     9.7282     9.483
    239     0.8901     0.8900     1.8900      5.593      0.000  22200.000      6.000    41.2537   -11.6289   -80.1692     1.2730    -1.5670    -0.0020    -0.0010    20.6267    41.2556     3.4231    14.6405    14.6392     0.0013   295.0000     9.6938     9.467
    240     0.8950     0.8949     1.8950      5.667      1.000  22200.000      6.000    41.2537   -11.7175   -80.4763     1.2730    -1.5670    -0.0020    -0.0010    20.6267    41.2556     3.4340    14.6405    14.6392     0.0013   295.0000     9.7262     9.493
    241     0.9001     0.9000     1.9000      5.723      0.000  22200.000      6.000    41.2537   -11.8051   -80.7883     1.2730    -1.5670    -0.0020    -0.0010    20.6267    41.2556     3.4450    14.6405    14.6392     0.0013   295.0000     9.6920     9.474
    242     0.9050     0.9049     1.9050      5.615      1.000  22200.000      6.000    41.2537   -11.8967   -81.0973     1.2730    -1.5670    -0.0020    -0.0010    20.6267    41.2556     3.4559    14.6405    14.6392     0.0013   295.0000     9.6920     9.474
    243     0.9101     0.9100     1.9100      5.614      0.000  22200.000      6.000    41.2537   -11.9872   -81.4123     1.2730    -1.5670    -0.0020    -0.0010    20.6267    41.2556     3.4670    14.6405    14.6392     0.0013   295.0000     9.7246     9.484
    244     0.9151     0.9150     1.9150      5.687      1.000  22200.000      6.000    41.2537   -12.0787   -81.7233     1.2730    -1.5670    -0.0020    -0.0010    20.6267    41.2556     3.4780    14.6405    14.6392     0.0013   295.0000     9.7275     9.466
    245     0.9200     0.9199     1.9200      5.590      1.000  22200.000      6.000    41.2537   -12.1722   -82.0333     1.2730    -1.5670    -0.0020    -0.0010    20.6267    41.2556     3.4888    14.6405    14.6392     0.0013   295.0000     9.7265     9.454
    246     0.9251     0.9250     1.9250      5.652      1.000  22200.000      6.000    41.2537   -12.2657   -82.3522     1.2730    -1.5670    -0.0020    -0.0010    20.6267    41.2556     3.5000    14.6405    14.6392     0.0013   295.0000     9.6909     9.493
    247     0.9300     0.9299     1.9300      5.688      4.000  22200.000      6.000    41.2537   -12.3602   -82.6652     1.2730    -1.5670    -0.0020    -0.0010    20.6267    41.2556     3.5109    14.6405    14.6392     0.0013   295.0000     9.6909     9.493
    248     0.9350     0.9350     1.9350      5.663      1.000  22200.000      6.000    41.2537   -12.4547   -82.9812     1.2730    -1.5670    -0.0020    -0.0010    20.6267    41.2556     3.5219    14.6405    14.6392     0.0013   295.0000     9.7292     9.459
    249     0.9401     0.9400     1.9400      5.599      0.000  22200.000      6.000    41.2537   -12.5502   -83.2991     1.2730    -1.5670    -0.0020    -0.0010    20.6267    41.2556     3.5329    14.6405    14.6392     0.0013   295.0000     9.6922     9.457
    250     0.9451     0.9450     1.9450      5.643      1.000  22200.000      6.000    41.2537   -12.6476   -83.6200     1.2730    -1.5670    -0.0020    -0.0010    20.6267    41.2556     3.5440    14.6405    14.6392     0.0013   295.0000     9.7254     9.464
    251     0.9501     0.9500     1.9500      5.628      3.000  22200.000      6.000    41.2537   -12.7451   -83.9359     1.2730    -1.5670    -0.0020    -0.0010    20.6267    41.2556     3.5549    14.6405    14.6392     0.0013   295.0000     9.7254     9.464
    252     0.9550     0.9550     1.9550      5.586      0.000  22200.000      6.000    41.2537   -12.8435   -84.2548     1.2730    -1.5670    -0.0020    -0.0010    20.6267    41.2556     3.5659    14.6405    14.6392     0.0013   295.0000     9.6976     9.484
    253     0.9601     0.9600     1.9600      5.606      2.000  22200.000      6.000    41.2537   -12.9419   -84.5767     1.2730    -1.5670    -0.0020    -0.0010    20.6267    41.2556     3.5770    14.6405    14.6392     0.0013   295.0000     9.7312     9.475
    254     0.9650     0.9650     1.9650      5.652      1.000  22200.000      6.000    41.2537   -13.0423   -84.8965     1.2730    -1.5670    -0.0020    -0.0010    20.6267    41.2556     3.5879    14.6405    14.6392     0.0013   295.0000     9.6881     9.468
    255     0.9700     0.9700     1.9700      5.619      0.000  22200.000      6.000    41.2537   -13.1437   -85.2194     1.2730    -1.5670    -0.0020    -0.0010    20.6267    41.2556     3.5990    14.6405    14.6392     0.0013   295.0000     9.7264     9.525
    256     0.9750     0.9749     1.9750      5.684      2.000  22200.000      6.000    41.2537   -13.2461   -85.5422     1.2730    -1.5670    -0.0020    -0.0010    20.6267    41.2556     3.6100    14.6405    14.6392     0.0013   295.0000     9.7264     9.525
    257     0.9800     0.9800     1.9800      5.660     18.000  22200.000      6.000    41.2537   -13.3484   -85.8670     1.2730    -1.5670    -0.0020    -0.0010    20.6267    41.2556     3.6210    14.6405    14.6392     0.0013   295.0000     9.6890     9.457
    258     0.9850     0.9849     1.9850      5.657     73.000  22200.000      6.000    41.2537   -13.4537   -86.1938     1.2730    -1.5670    -0.0020    -0.0010    20.6267    41.2556     3.6321    14.6405    14.6392     0.0013   295.0000     9.7340     9.465
    259     0.9899     0.9899     1.9900      5.706    207.000  22200.000      6.000    41.2537   -13.5571   -86.5166     1.2730    -1.5670    -0.0020    -0.0010    20.6267    41.2556     3.6430    14.6405    14.6392     0.0013   295.0000     9.7346     9.482
    260     0.9950     0.9950     1.9950      5.554    356.000  22200.000      6.000    41.2537   -13.6614   -86.8463     1.2730    -1.5670    -0.0020    -0.0010    20.6267    41.2556     3.6542    14.6405    14.6392     0.0013   295.0000     9.7346     9.482
    261     1.0001     1.0000     2.0000      5.607    410.000  22200.000      6.000    41.2537   -13.7667   -87.1751     1.2730    -1.5670    -0.0020    -0.0010    20.6267    41.2556     3.6652    14.6405    14.6392     0.0013   295.0000     9.7350     9.517
    262     1.0050     1.0049     2.0050      5.636    396.000  22200.000      6.000    41.2537   -13.8750   -87.5028     1.2730    -1.5670    -0.0020    -0.0010    20.6267    41.2556     3.6762    14.6405    14.6392     0.0013   295.0000     9.7367     9.464
    263     1.0101     1.0100     2.0100      5.569    271.000  22200.000      6.000    41.2537   -13.9813   -87.8345     1.2730    -1.5670    -0.0020    -0.0010    20.6267    41.2556     3.6873    14.6405    14.6392     0.0013   295.0000     9.7337     9.451
    264     1.0151     1.0150     2.0150      5.683     76.000  22200.000      6.000    41.2537   -14.0915   -88.1682     1.2730    -1.5670    -0.0020    -0.0010    20.6267    41.2556     3.6985    14.6405    14.6392     0.0013   295.0000     9.6958     9.519
    265     1.0200     1.0200     2.0200      5.685      7.000  22200.000      6.000    41.2537   -14.2008   -88.4989     1.2730    -1.5670    -0.0020    -0.0010    20.6267    41.2556     3.7095    14.6405    14.6392     0.0013   295.0000     9.6958     9.519
    266     1.0251     1.0250     2.0250      5.680      5.000  22200.000      6.000    41.2537   -14.3100   -88.8316     1.2730    -1.5670    -0.0020    -0.0010    20.6267    41.2556     3.7205    14.6405    14.6392     0.0013   295.0000     9.7398     9.483
    267     1.0301     1.0300     2.0300      5.601      3.000  22200.000      6.000    41.2537   -14.4222   -89.1682     1.2730    -1.5670    -0.0020    -0.0010    20.6267    41.2556     3.7316    14.6405    14.6392     0.0013   295.0000     9.7358     9.461
    268     1.0350     1.0349     2.0350      5.628      3.000  22200.000      6.000    41.2537   -14.5344   -89.5009     1.2730    -1.5670    -0.0020    -0.0010    20.6267    41.2556     3.7426    14.6405    14.6392     0.0013   295.0000     9.7380     9.472
    269     1.0401     1.0400     2.0400      5.644      0.000  22200.000      6.000    41.2537   -14.6467   -89.8404     1.2730    -1.5670    -0.0020    -0.0010    20.6267    41.2556     3.7538    14.6405    14.6392     0.0013   295.0000     9.7380     9.472
    270     1.0450     1.0449     2.0450      5.599      1.000  22200.000      6.000    41.2537   -14.7608   -90.1751     1.2730    -1.5670    -0.0020    -0.0010    20.6267    41.2556     3.7648    14.6405    14.6392     0.0013   295.0000     9.6931     9.481
    271     1.0501     1.0500     2.0500      5.629      1.000  22200.000      6.000    41.2537   -14.8760   -90.5166     1.2730    -1.5670    -0.0020    -0.0010    20.6267    41.2556     3.7759    14.6405    14.6392     0.0013   295.0000     9.7360     9.507
    272     1.0551     1.0550     2.0550      5.622      0.000  22200.000      6.000    41.2537   -14.9902   -90.8562     1.2730    -1.5670    -0.0020    -0.0010    20.6267    41.2556     3.7870    14.6405    14.6392     0.0013   295.0000     9.6923     9.480
    273     1.0602     1.0601     2.0600      5.657      1.000  22200.000      6.000    41.2537   -15.1073   -91.2017     1.2730    -1.5670    -0.0020    -0.0010    20.6267    41.2556     3.7982    14.6405    14.6392     0.0013   295.0000     9.6923     9.480
    274     1.0650     1.0649     2.0650      5.656      1.000  22200.000      6.000    41.2537   -15.2254   -91.5393     1.2730    -1.5670    -0.0020    -0.0010    20.6267    41.2556     3.8092    14.6405    14.6392     0.0013   295.0000     9.7389     9.503
    275     1.0700     1.0699     2.0700      5.616      1.000  22200.000      6.000    41.2537   -15.3435   -91.8828     1.2730    -1.5670    -0.0020    -0.0010    20.6267    41.2556     3.8203    14.6405    14.6392     0.0013   295.0000     9.6919     9.472
    276     1.0750     1.0749     2.0750      5.632      0.000  22200.000      6.000    41.2537   -15.4636   -92.2282     1.2730    -1.5670    -0.0020    -0.0010    20.6267    41.2556     3.8314    14.6405    14.6392     0.0013   295.0000     9.6929     9.490
    277     1.0800     1.0799     2.0800      5.581      1.000  22200.000      6.000    41.2537   -15.5837   -92.5727     1.2730    -1.5670    -0.0020    -0.0010    20.6267    41.2556     3.8425    14.6405    14.6392     0.0013   295.0000     9.7413     9.492
    278     1.0850     1.0850     2.0850      5.651      0.000  22200.000      6.000    41.2537   -15.7028   -92.9192     1.2730    -1.5670    -0.0020    -0.0010    20.6267    41.2556     3.8536    14.6405    14.6392     0.0013   295.0000     9.7413     9.492
    279     1.0901     1.0900     2.0900      5.604      3.000  22200.000      6.000    41.2537   -15.8248   -93.2686     1.2730    -1.5670    -0.0020    -0.0010    20.6267    41.2556     3.8647    14.6405    14.6392     0.0013   295.0000     9.7348     9.522
    280     1.0951     1.0950     2.0950      5.547      1.000  22200.000      6.000    41.2537   -15.9478   -93.6180     1.2730    -1.5670    -0.0020    -0.0010    20.6267    41.2556     3.8758    14.6405    14.6392     0.0013   295.0000     9.6923     9.460
    281     1.1000     1.1000     2.1000      5.665      0.000  22200.000      6.000    41.2537   -16.0709   -93.9674     1.2730    -1.5670    -0.0020    -0.0010    20.6267    41.2556     3.8869    14.6405    14.6392     0.0013   295.0000     9.7349     9.478
    282     1.1051     1.1050     2.1050      5.621      0.000  22200.000      6.000    41.2537   -16.1959   -94.3217     1.2730    -1.5670    -0.0020    -0.0010    20.6267    41.2556     3.8981    14.6405    14.6392     0.0013   295.0000     9.7349     9.478
    283     1.1101     1.1100     2.1100      5.582      1.000  22200.000      6.000    41.2537   -16.3219   -94.6751     1.2730    -1.5670    -0.0020    -0.0010    20.6267    41.2556     3.9092    14.6405    14.6392     0.0013   295.0000     9.6924     9.494
    284     1.1150     1.1149     2.1150      5.707      0.000  22200.000      6.000    41.2537   -16.4488   -95.0274     1.2730    -1.5670    -0.0020    -0.0010    20.6267    41.2556     3.9203    14.6405    14.6392     0.0013   295.0000     9.7293     9.462
    285     1.1201     1.1200     2.1200      5.648      0.000  22200.000      6.000    41.2537   -16.5758   -95.3847     1.2730    -1.5670    -0.0020    -0.0010    20.6267    41.2556     3.9314    14.6405    14.6392     0.0013   295.0000     9.6893     9.451
    286     1.1251     1.1250     2.1250      5.626      1.000  22200.000      6.000    41.2537   -16.7028   -95.7430     1.2730    -1.5670    -0.0020    -0.0010    20.6267    41.2556     3.9426    14.6405    14.6392     0.0013   295.0000     9.7341     9.531
    287     1.1300     1.1299     2.1300      5.628      2.000  22200.000      6.000    41.2537   -16.8337   -96.0983     1.2730    -1.5670    -0.0020    -0.0010    20.6267    41.2556     3.9537    14.6405    14.6392     0.0013   295.0000     9.7341     9.531
    288     1.1351     1.1350     2.1350      5.651      0.000  22200.000      6.000    41.2537   -16.9636   -96.4605     1.2730    -1.5670    -0.0020    -0.0010    20.6267    41.2556     3.9649    14.6405    14.6392     0.0013   295.0000     9.6918     9.482
    289     1.1400     1.1399     2.1400      5.624      0.000  22200.000      6.000    41.2537   -17.0955   -96.8208     1.2730    -1.5670    -0.0020    -0.0010    20.6267    41.2556     3.9760    14.6405    14.6392     0.0013   295.0000     9.7402     9.477
    290     1.1451     1.1450     2.1450      5.693      0.000  22200.000      6.000    41.2537   -17.2264   -97.1839     1.2730    -1.5670    -0.0020    -0.0010    20.6267    41.2556     3.9871    14.6405    14.6392     0.0013   295.0000     9.6877     9.475
    291     1.1500     1.1499     2.1500      5.580      1.000  22200.000      6.000    41.2537   -17.3612   -97.5481     1.2730    -1.5670    -0.0020    -0.0010    20.6267    41.2556     3.9983    14.6405    14.6392     0.0013   295.0000     9.6877     9.475
    292     1.1550     1.1550     2.1550      5.581      1.000  22200.000      6.000    41.2537   -17.4941   -97.9123     1.2730    -1.5670    -0.0020    -0.0010    20.6267    41.2556     4.0094    14.6405    14.6392     0.0013   295.0000     9.6896     9.487
    293     1.1601     1.1600     2.1600      5.572      0.000  22200.000      6.000    41.2537   -17.6280   -98.2794     1.2730    -1.5670    -0.0020    -0.0010    20.6267    41.2556     4.0206    14.6405    14.6392     0.0013   295.0000     9.6873     9.466
    294     1.1652     1.1651     2.1650      5.624      1.000  22200.000      6.000    41.2537   -17.7648   -98.6534     1.2730    -1.5670    -0.0020    -0.0010    20.6267    41.2556     4.0319    14.6405    14.6392     0.0013   295.0000     9.7436     9.469
    295     1.1700     1.1699     2.1700      5.638      2.000  22200.000      6.000    41.2537   -17.9035   -99.0166     1.2730    -1.5670    -0.0020    -0.0010    20.6267    41.2556     4.0429    14.6405    14.6392     0.0013   295.0000     9.6961     9.500
    296     1.1750     1.1749     2.1750      5.623      0.000  22200.000      6.000    41.2537   -18.0423   -99.3896     1.2730    -1.5670    -0.0020    -0.0010    20.6267    41.2556     4.0541    14.6405    14.6392     0.0013   295.0000     9.6961     9.500
    297     1.1800     1.1800     2.1800      5.679      0.000  22200.000      6.000    41.2537   -18.1801   -99.7617     1.2730    -1.5670    -0.0020    -0.0010    20.6267    41.2556     4.0652    14.6405    14.6392     0.0013   295.0000     9.7452     9.471
    298     1.1850     1.1849     2.1850      5.637      0.000  22200.000      6.000    41.2537   -18.3209  -100.1357     1.2730    -1.5670    -0.0020    -0.0010    20.6267    41.2556     4.0764    14.6405    14.6392     0.0013   295.0000     9.6878     9.470
    299     1.1900     1.1899     2.1900      5.647      0.000  22200.000      6.000    41.2537   -18.4636  -100.5117     1.2730    -1.5670    -0.0020    -0.0010    20.6267    41.2556     4.0876    14.6405    14.6392     0.0013   295.0000     9.6872     9.468
    300     1.1950     1.1949     2.1950      5.631      1.000  22200.000      6.000    41.2537   -18.6043  -100.8896     1.2730    -1.5670    -0.0020    -0.0010    20.6267    41.2556     4.0987    14.6405    14.6392     0.0013   295.0000     9.7522     9.494
    301     1.2001     1.2000     2.2000      5.648      1.000  22200.000      6.000    41.2537   -18.7461  -101.2686     1.2730    -1.5670    -0.0020    -0.0010    20.6267    41.2556     4.1099    14.6405    14.6392     0.0013   295.0000     9.7522     9.494
    302     1.2051     1.2050     2.2050      5.567      0.000  22200.000      6.000    41.2537   -18.8907  -101.6485     1.2730    -1.5670    -0.0020    -0.0010    20.6267    41.2556     4.1211    14.6405    14.6392     0.0013   295.0000     9.7498     9.464
    303     1.2100     1.2099     2.2100      5.578      0.000  22200.000      6.000    41.2537   -19.0384  -102.0314     1.2730    -1.5670    -0.0020    -0.0010    20.6267    41.2556     4.1323    14.6405    14.6392     0.0013   295.0000     9.6884     9.457
    304     1.2151     1.2150     2.2150      5.714      2.000  22200.000      6.000    41.2537   -19.1821  -102.4152     1.2730    -1.5670    -0.0020    -0.0010    20.6267    41.2556     4.1435    14.6405    14.6392     0.0013   295.0000     9.7589     9.491
    305     1.2201     1.2200     2.2200      5.608      0.000  22200.000      6.000    41.2537   -19.3307  -102.8011     1.2730    -1.5670    -0.0020    -0.0010    20.6267    41.2556     4.1546    14.6405    14.6392     0.0013   295.0000     9.7589     9.491
    306     1.2250     1.2249     2.2250      5.638      2.000  22200.000      6.000    41.2537   -19.4813  -103.1879     1.2730    -1.5670    -0.0020    -0.0010    20.6267    41.2556     4.1658    14.6405    14.6392     0.0013   295.0000     9.6955     9.494
    307     1.2300     1.2299     2.2300      5.575      1.000  22200.000      6.000    41.2537   -19.6299  -103.5767     1.2730    -1.5670    -0.0020    -0.0010    20.6267    41.2556     4.1770    14.6405    14.6392     0.0013   295.0000     9.7611     9.478
    308     1.2351     1.2350     2.2350      5.692      0.000  22200.000      6.000    41.2537   -19.7815  -103.9704     1.2730    -1.5670    -0.0020    -0.0010    20.6267    41.2556     4.1883    14.6405    14.6392     0.0013   295.0000     9.7075     9.497
    309     1.2400     1.2399     2.2400      5.655      1.000  22200.000      6.000    41.2537   -19.9331  -104.3611     1.2730    -1.5670    -0.0020    -0.0010    20.6267    41.2556     4.1994    14.6405    14.6392     0.0013   295.0000     9.7721     9.548
    310     1.2451     1.2450     2.2450      5.682      1.000  22200.000      6.000    41.2537   -20.0856  -104.7568     1.2730    -1.5670    -0.0020    -0.0010    20.6267    41.2556     4.2106    14.6405    14.6392     0.0013   295.0000     9.7721     9.548
    311     1.2500     1.2499     2.2500      5.577      0.000  22200.000      6.000    41.2537   -20.2402  -105.1515     1.2730    -1.5670    -0.0020    -0.0010    20.6267    41.2556     4.2218    14.6405    14.6392     0.0013   295.0000     9.7113     9.465
    312     1.2550     1.2549     2.2550      5.560      1.000  22200.000      6.000    41.2537   -20.3967  -105.5501     1.2730    -1.5670    -0.0020    -0.0010    20.6267    41.2556     4.2330    14.6405    14.6392     0.0013   295.0000     9.7101     9.485
    313     1.2601     1.2600     2.2600      5.678      0.000  22200.000      6.000    41.2537   -20.5512  -105.9507     1.2730    -1.5670    -0.0020    -0.0010    20.6267    41.2556     4.2442    14.6405    14.6392     0.0013   295.0000     9.7106     9.481
    314     1.2652     1.2651     2.2650      5.675      0.000  22200.000      6.000    41.2537   -20.7106  -106.3572     1.2730    -1.5670    -0.0020    -0.0010    20.6267    41.2556     4.2555    14.6405    14.6392     0.0013   295.0000     9.7106     9.481
    315     1.2701     1.2700     2.2700      5.594      1.000  22200.000      6.000    41.2537   -20.8691  -106.7568     1.2730    -1.5670    -0.0020    -0.0010    20.6267    41.2556     4.2666    14.6405    14.6392     0.0013   295.0000     9.7812     9.508
    316     1.2750     1.2749     2.2750      5.602      1.000  22200.000      6.000    41.2537   -21.0305  -107.1623     1.2730    -1.5670    -0.0020    -0.0010    20.6267    41.2556     4.2778    14.6405    14.6392     0.0013   295.0000     9.7161     9.494
    317     1.2800     1.2799     2.2800      5.645      0.000  22200.000      6.000    41.2537   -21.1939  -107.5717     1.2730    -1.5670    -0.0020    -0.0010    20.6267    41.2556     4.2891    14.6405    14.6392     0.0013   295.0000     9.7931     9.495
    318     1.2850     1.2849     2.2850      5.594      0.000  22200.000      6.000    41.2537   -21.3553  -107.9802     1.2730    -1.5670    -0.0020    -0.0010    20.6267    41.2556     4.3002    14.6405    14.6392     0.0013   295.0000     9.7221     9.517
    319     1.2901     1.2900     2.2900      5.684      0.000  22200.000      6.000    41.2537   -21.5197  -108.3956     1.2730    -1.5670    -0.0020    -0.0010    20.6267    41.2556     4.3115    14.6405    14.6392     0.0013   295.0000     9.7221     9.517
    320     1.2950     1.2949     2.2950      5.691      3.000  22200.000      6.000    41.2537   -21.6860  -108.8099     1.2730    -1.5670    -0.0020    -0.0010    20.6267    41.2556     4.3228    14.6405    14.6392     0.0013   295.0000     9.7254     9.496
    321     1.3001     1.3000     2.3000      5.568      1.000  22200.000      6.000    41.2537   -21.8504  -109.2253     1.2730    -1.5670    -0.0020    -0.0010    20.6267    41.2556     4.3339    14.6405    14.6392     0.0013   295.0000     9.8004     9.496
    322     1.3051     1.3050     2.3050      5.626      0.000  22200.000      6.000    41.2537   -22.0197  -109.6446     1.2730    -1.5670    -0.0020    -0.0010    20.6267    41.2556     4.3452    14.6405    14.6392     0.0013   295.0000     9.8017     9.492
    323     1.3101     1.3100     2.3100      5.562      1.000  22200.000      6.000    41.2537   -22.1890  -110.0668     1.2730    -1.5670    -0.0020    -0.0010    20.6267    41.2556     4.3564    14.6405    14.6392     0.0013   295.0000     9.7392     9.535
    324     1.3150     1.3149     2.3150      5.627      1.000  22200.000      6.000    41.2537   -22.3602  -110.4891     1.2730    -1.5670    -0.0020    -0.0010    20.6267    41.2556     4.3676    14.6405    14.6392     0.0013   295.0000     9.7392     9.535
    325     1.3201     1.3200     2.3200      5.635      0.000  22200.000      6.000    41.2537   -22.5315  -110.9162     1.2730    -1.5670    -0.0020    -0.0010    20.6267    41.2556     4.3789    14.6405    14.6392     0.0013   295.0000     9.8077     9.501
    326     1.3251     1.3249     2.3250      5.593      0.000  22200.000      6.000    41.2537   -22.7067  -111.3444     1.2730    -1.5670    -0.0020    -0.0010    20.6267    41.2556     4.3901    14.6405    14.6392     0.0013   295.0000     9.7431     9.483
    327     1.3301     1.3300     2.3300      5.587      2.000  22200.000      6.000    41.2537   -22.8799  -111.7745     1.2730    -1.5670    -0.0020    -0.0010    20.6267    41.2556     4.4014    14.6405    14.6392     0.0013   295.0000     9.7348     9.500
    328     1.3350     1.3349     2.3350      5.524      0.000  22200.000      6.000    41.2537   -23.0581  -112.2076     1.2730    -1.5670    -0.0020    -0.0010    20.6267    41.2556     4.4126    14.6405    14.6392     0.0013   295.0000     9.7348     9.500
    329     1.3400     1.3399     2.3400      5.681      0.000  22200.000      6.000    41.2537   -23.2382  -112.6436     1.2730    -1.5670    -0.0020    -0.0010    20.6267    41.2556     4.4238    14.6405    14.6392     0.0013   295.0000     9.7440     9.559
    330     1.3450     1.3449     2.3450      5.683      2.000  22200.000      6.000    41.2537   -23.4163  -113.0826     1.2730    -1.5670    -0.0020    -0.0010    20.6267    41.2556     4.4351    14.6405    14.6392     0.0013   295.0000     9.7403     9.498
    331     1.3501     1.3500     2.3500      5.645      1.000  22200.000      6.000    41.2537   -23.5965  -113.5255     1.2730    -1.5670    -0.0020    -0.0010    20.6267    41.2556     4.4464    14.6405    14.6392     0.0013   295.0000     9.7472     9.466
    332     1.3551     1.3550     2.3550      5.692      2.000  22200.000      6.000    41.2537   -23.7776  -113.9674     1.2730    -1.5670    -0.0020    -0.0010    20.6267    41.2556     4.4576    14.6405    14.6392     0.0013   295.0000     9.8133     9.536
    333     1.3602     1.3601     2.3599      5.638      2.000  22200.000      6.000    41.2537   -23.9606  -114.4133     1.2730    -1.5670    -0.0020    -0.0010    20.6267    41.2556     4.4688    14.6405    14.6392     0.0013   295.0000     9.8133     9.536
    334     1.3651     1.3650     2.3650      5.594      2.000  22200.000      6.000    41.2537   -24.1476  -114.8631     1.2730    -1.5670    -0.0020    -0.0010    20.6267    41.2556     4.4801    14.6405    14.6392     0.0013   295.0000     9.7443     9.473
    335     1.3701     1.3700     2.3700      5.655      0.000  22200.000      6.000    41.2537   -24.3356  -115.3139     1.2730    -1.5670    -0.0020    -0.0010    20.6267    41.2556     4.4913    14.6405    14.6392     0.0013   295.0000     9.8089     9.499
    336     1.3750     1.3749     2.3750      5.556      0.000  22200.000      6.000    41.2537   -24.5266  -115.7706     1.2730    -1.5670    -0.0020    -0.0010    20.6267    41.2556     4.5026    14.6405    14.6392     0.0013   295.0000     9.8071     9.507
    337     1.3800     1.3799     2.3801      5.641      2.000  22200.000      6.000    41.2537   -24.7185  -116.2282     1.2730    -1.5670    -0.0020    -0.0010    20.6267    41.2556     4.5139    14.6405    14.6392     0.0013   295.0000     9.7469     9.544
    338     1.3850     1.3849     2.3850      5.581      1.000  22200.000      6.000    41.2537   -24.9104  -116.6889     1.2730    -1.5670    -0.0020    -0.0010    20.6267    41.2556     4.5251    14.6405    14.6392     0.0013   295.0000     9.7469     9.544
    339     1.3900     1.3899     2.3900      5.670      0.000  22200.000      6.000    41.2537   -25.1033  -117.1524     1.2730    -1.5670    -0.0020    -0.0010    20.6267    41.2556     4.5364    14.6405    14.6392     0.0013   295.0000     9.7435     9.464
    340     1.3951     1.3950     2.3950      5.618      0.000  22200.000      6.000    41.2537   -25.2982  -117.6200     1.2730    -1.5670    -0.0020    -0.0010    20.6267    41.2556     4.5476    14.6405    14.6392     0.0013   295.0000     9.8123     9.503
    341     1.4000     1.3999     2.4000      5.583      1.000  22200.000      6.000    41.2537   -25.4980  -118.0904     1.2730    -1.5670    -0.0020    -0.0010    20.6267    41.2556     4.5589    14.6405    14.6392     0.0013   295.0000     9.7464     9.470
    342     1.4050     1.4049     2.4050      5.651      1.000  22200.000      6.000    41.2537   -25.6969  -118.5648     1.2730    -1.5670    -0.0020    -0.0010    20.6267    41.2556     4.5702    14.6405    14.6392     0.0013   295.0000     9.8136     9.546
    343     1.4100     1.4099     2.4100      5.563      0.000  22200.000      6.000    41.2537   -25.8976  -119.0412     1.2730    -1.5670    -0.0020    -0.0010    20.6267    41.2556     4.5814    14.6405    14.6392     0.0013   295.0000     9.8136     9.546
    344     1.4151     1.4150     2.4150      5.582      1.000  22200.000      6.000    41.2537   -26.0994  -119.5225     1.2730    -1.5670    -0.0020    -0.0010    20.6267    41.2556     4.5927    14.6405    14.6392     0.0013   295.0000     9.7416     9.510
    345     1.4200     1.4199     2.4200      5.573      1.000  22200.000      6.000    41.2537   -26.3061  -120.0048     1.2730    -1.5670    -0.0020    -0.0010    20.6267    41.2556     4.6040    14.6405    14.6392     0.0013   295.0000     9.7467     9.519
    346     1.4251     1.4250     2.4250      5.628      1.000  22200.000      6.000    41.2537   -26.5128  -120.4969     1.2730    -1.5670    -0.0020    -0.0010    20.6267    41.2556     4.6153    14.6405    14.6392     0.0013   295.0000     9.7489     9.477
    347     1.4302     1.4300     2.4300      5.662      2.000  22200.000      6.000    41.2537   -26.7215  -120.9881     1.2730    -1.5670    -0.0020    -0.0010    20.6266    41.2556     4.6266    14.6405    14.6392     0.0013   295.0000     9.8133     9.502
    348     1.4351     1.4350     2.4350      5.690      1.000  22200.000      6.000    41.2537   -26.9350  -121.4861     1.2730    -1.5670    -0.0020    -0.0010    20.6266    41.2556     4.6379    14.6405    14.6392     0.0013   295.0000     9.8133     9.502
    349     1.4401     1.4400     2.4399      5.649      0.000  22200.000      6.000    41.2537   -27.1457  -121.9812     1.2730    -1.5670    -0.0020    -0.0010    20.6266    41.2556     4.6491    14.6405    14.6392     0.0013   295.0000     9.7475     9.465
    350     1.4449     1.4448     2.4451      5.648      0.000  22200.000      6.000    41.2537   -27.3661  -122.4841     1.2730    -1.5670    -0.0020    -0.0010    20.6266    41.2556     4.6604    14.6405    14.6392     0.0013   295.0000     9.7485     9.536
    351     1.4501     1.4499     2.4500      5.570      1.000  22200.000      6.000    41.2537   -27.5827  -122.9940     1.2730    -1.5670    -0.0020    -0.0010    20.6266    41.2556     4.6717    14.6405    14.6392     0.0013   295.0000     9.8156     9.556
    352     1.4551     1.4550     2.4550      5.616      0.000  22200.000      6.000    41.2537   -27.8022  -123.5058     1.2730    -1.5670    -0.0020    -0.0010    20.6266    41.2556     4.6830    14.6405    14.6392     0.0013   295.0000     9.7565     9.542
    353     1.4599     1.4598     2.4600      5.592      1.000  22200.000      6.000    41.2537   -28.0266  -124.0186     1.2730    -1.5670    -0.0020    -0.0010    20.6266    41.2556     4.6942    14.6405    14.6392     0.0013   295.0000     9.7565     9.542
    354     1.4651     1.4650     2.4650      5.677      1.000  22200.000      6.000    41.2537   -28.2510  -124.5452     1.2730    -1.5670    -0.0020    -0.0010    20.6266    41.2556     4.7056    14.6405    14.6392     0.0013   295.0000     9.7509     9.495
    355     1.4700     1.4699     2.4700      5.744      0.000  22200.000      6.000    41.2537   -28.4783  -125.0668     1.2730    -1.5670    -0.0020    -0.0010    20.6266    41.2556     4.7168    14.6405    14.6392     0.0013   295.0000     9.8132     9.557
    356     1.4751     1.4750     2.4750      5.619     10.000  22200.000      6.000    41.2537   -28.7077  -125.5983     1.2730    -1.5670    -0.0020    -0.0010    20.6266    41.2556     4.7282    14.6405    14.6392     0.0013   295.0000     9.7516     9.469
    357     1.4800     1.4799     2.4800      5.641     32.000  22200.000      6.000    41.2537   -28.9419  -126.1328     1.2730    -1.5670    -0.0020    -0.0010    20.6266    41.2556     4.7394    14.6405    14.6392     0.0013   295.0000     9.8194     9.601
    358     1.4851     1.4850     2.4850      5.648     61.000  22200.000      6.000    41.2537   -29.1762  -126.6741     1.2730    -1.5670    -0.0020    -0.0010    20.6266    41.2556     4.7508    14.6405    14.6392     0.0013   295.0000     9.8194     9.601
    359     1.4900     1.4898     2.4901      5.575     68.000  22200.000      6.000    41.2537   -29.4173  -127.2184     1.2730    -1.5670    -0.0020    -0.0010    20.6266    41.2556     4.7620    14.6405    14.6392     0.0013   295.0000     9.8133     9.494
    360     1.4950     1.4949     2.4950      5.646     98.000  22200.000      6.000    41.2537   -29.6565  -127.7686     1.2730    -1.5670    -0.0020    -0.0010    20.6266    41.2556     4.7733    14.6405    14.6392     0.0013   295.0000     9.7418     9.506
    361     1.5001     1.5000     2.5000      5.660    118.000  22200.000      6.000    41.2537   -29.8986  -128.3257     1.2730    -1.5670    -0.0020    -0.0010    20.6266    41.2556     4.7846    14.6405    14.6392     0.0013   295.0000     9.7421     9.513
    362     1.5052     1.5051     2.5050      5.634     91.000  22200.000      6.000    41.2537   -30.1467  -128.8916     1.2730    -1.5670    -0.0020    -0.0010    20.6266    41.2556     4.7960    14.6405    14.6392     0.0013   295.0000     9.7485     9.544
    363     1.5100     1.5099     2.5100      5.643     90.000  22200.000      6.000    41.2537   -30.3986  -129.4546     1.2730    -1.5670    -0.0020    -0.0010    20.6266    41.2556     4.8072    14.6405    14.6392     0.0013   295.0000     9.7485     9.544
    364     1.5150     1.5148     2.5150      5.577     82.000  22200.000      6.000    41.2537   -30.6516  -130.0274     1.2730    -1.5670    -0.0020    -0.0010    20.6266    41.2556     4.8185    14.6405    14.6392     0.0013   295.0000     9.7446     9.534
    365     1.5201     1.5200     2.5200      5.726     40.000  22200.000      6.000    41.2537   -30.9075  -130.6121     1.2730    -1.5670    -0.0020    -0.0010    20.6266    41.2556     4.8299    14.6405    14.6392     0.0013   295.0000     9.7383     9.507
# Sum of Counts = 7500
# Center of Mass = 0.713372+/-0.012309
# Full Width Half-Maximum = 0.688817+/-0.009956
# 1:39:44 AM  11/9/2003   scan completed.
