# scan = 76
# date = 11/9/2003
# time = 1:50:04 PM
# experiment = TbPtIn single crystal;  100 plane
# experiment_number = 41
# command = scan h 0 k 0 l 1.94 2.06 .005 preset 2
# builtin_command = scan h 0 k 0 l 1.94 2.06 .005 preset 2
# users = O.Garlea, C.Stassis, J.L.Zarestky
# local_contact = J.L.Zarestky
# scan_title = 002 order parameter UP T = 28.0000
# monochromator = PG002
# analyzer = Pg002
# sense = +-+
# collimation = 48-40-40-102
# samplename = TbPtIn
# sampletype = crystal
# samplemosaic = 30.000000
# latticeconstants = 7.554017,7.554017,3.847681,90.000000,90.000000,120.000000
# ubmatrix = -0.008230,-0.004834,0.259516,-0.134256,-0.130074,-0.012979,0.072618,-0.080146,0.005414
# mode = 0
# plane_normal = -0.022217,-0.027363,0.999379
# ubconf = C:\User\exp41\UBConf\UB08Nov2003_100555PM.ini
# preset_type = normal 
# preset_channel = mcu
# preset_value = 2.000000
# def_x = l
# def_y = detector
# col_headers = 
#   Pt.          h          k          l       time   detector    monitor        mcu         m2         s1         s2        sgl        sgu        stl        stu         a1         a2          q         ei         ef          e       temp    coldtip    tsample
      1     0.0000     0.0000     1.9400      1.858      0.000   7400.000      2.000    41.2537   -33.7520   -73.1583     1.2730    -1.5670    -0.0020    -0.0010    20.6267    41.2556     3.1680    14.6405    14.6392     0.0013    28.0000    27.9920    30.921
      2     0.0000     0.0000     1.9450      1.895      1.000   7400.000      2.000    41.2537   -33.8602   -73.3759     1.2730    -1.5670    -0.0020    -0.0010    20.6267    41.2556     3.1761    14.6405    14.6392     0.0013    28.0000    27.9920    30.921
      3     0.0000     0.0000     1.9500      1.894      1.000   7400.000      2.000    41.2537   -33.9695   -73.5954     1.2730    -1.5670    -0.0020    -0.0010    20.6267    41.2556     3.1843    14.6405    14.6392     0.0013    28.0000    27.9900    31.386
      4     0.0000     0.0000     1.9550      1.887      0.000   7400.000      2.000    41.2537   -34.0797   -73.8158     1.2730    -1.5670    -0.0020    -0.0010    20.6267    41.2556     3.1925    14.6405    14.6392     0.0013    28.0000    27.9900    31.386
      5     0.0000     0.0000     1.9600      1.869      5.000   7400.000      2.000    41.2537   -34.1909   -74.0363     1.2730    -1.5670    -0.0020    -0.0010    20.6267    41.2556     3.2006    14.6405    14.6392     0.0013    28.0000    27.9900    31.386
      6     0.0000     0.0000     1.9650      1.861      0.000   7400.000      2.000    41.2537   -34.3012   -74.2578     1.2730    -1.5670    -0.0020    -0.0010    20.6267    41.2556     3.2088    14.6405    14.6392     0.0013    28.0000    27.9910    31.465
      7    -0.0001    -0.0001     1.9700      1.845      3.000   7400.000      2.000    41.2537   -34.4134   -74.4763     1.2730    -1.5670    -0.0020    -0.0010    20.6267    41.2556     3.2169    14.6405    14.6392     0.0013    28.0000    27.9910    31.465
      8     0.0000     0.0000     1.9751      1.865     30.000   7400.000      2.000    41.2537   -34.5226   -74.7017     1.2730    -1.5670    -0.0020    -0.0010    20.6267    41.2556     3.2252    14.6405    14.6392     0.0013    28.0000    27.9870    31.397
      9    -0.0001    -0.0001     1.9800      1.882    195.000   7400.000      2.000    41.2537   -34.6348   -74.9192     1.2730    -1.5670    -0.0020    -0.0010    20.6267    41.2556     3.2332    14.6405    14.6392     0.0013    28.0000    27.9870    31.397
     10     0.0000     0.0000     1.9850      1.900    571.000   7400.000      2.000    41.2537   -34.7431   -75.1426     1.2730    -1.5670    -0.0020    -0.0010    20.6267    41.2556     3.2415    14.6405    14.6392     0.0013    28.0000    27.9870    31.397
     11    -0.0000    -0.0000     1.9900      1.887   1002.000   7400.000      2.000    41.2537   -34.8553   -75.3641     1.2730    -1.5670    -0.0020    -0.0010    20.6267    41.2556     3.2496    14.6405    14.6392     0.0013    28.0000    27.9910    30.822
     12     0.0000     0.0000     1.9950      1.912   1460.000   7400.000      2.000    41.2537   -34.9656   -75.5875     1.2730    -1.5670    -0.0020    -0.0010    20.6267    41.2556     3.2578    14.6405    14.6392     0.0013    28.0000    27.9910    30.822
     13    -0.0000    -0.0000     2.0000      1.822   1334.000   7400.000      2.000    41.2537   -35.0787   -75.8099     1.2730    -1.5670    -0.0020    -0.0010    20.6267    41.2556     3.2659    14.6405    14.6392     0.0013    28.0000    28.0000    30.929
     14     0.0000     0.0000     2.0050      1.865   1350.000   7400.000      2.000    41.2537   -35.1890   -76.0343     1.2730    -1.5670    -0.0020    -0.0010    20.6267    41.2556     3.2741    14.6405    14.6392     0.0013    28.0000    28.0000    30.929
     15     0.0001     0.0001     2.0100      1.900    982.000   7400.000      2.000    41.2537   -35.3002   -76.2587     1.2730    -1.5670    -0.0020    -0.0010    20.6267    41.2556     3.2823    14.6405    14.6392     0.0013    28.0000    28.0000    30.929
     16    -0.0001    -0.0001     2.0150      1.898    547.000   7400.000      2.000    41.2537   -35.4144   -76.4792     1.2730    -1.5670    -0.0020    -0.0010    20.6267    41.2556     3.2904    14.6405    14.6392     0.0013    28.0000    28.0110    30.656
     17     0.0001     0.0001     2.0200      1.907    150.000   7400.000      2.000    41.2537   -35.5246   -76.7066     1.2730    -1.5670    -0.0020    -0.0010    20.6267    41.2556     3.2987    14.6405    14.6392     0.0013    28.0000    28.0110    30.656
     18    -0.0000    -0.0000     2.0250      1.869     22.000   7400.000      2.000    41.2537   -35.6378   -76.9290     1.2730    -1.5670    -0.0020    -0.0010    20.6267    41.2556     3.3067    14.6405    14.6392     0.0013    28.0000    28.0110    30.656
     19     0.0000     0.0000     2.0300      1.883      4.000   7400.000      2.000    41.2537   -35.7500   -77.1544     1.2730    -1.5670    -0.0020    -0.0010    20.6267    41.2556     3.3149    14.6405    14.6392     0.0013    28.0000    28.0080    30.695
     20    -0.0000    -0.0000     2.0350      1.886      3.000   7400.000      2.000    41.2537   -35.8632   -77.3798     1.2730    -1.5670    -0.0020    -0.0010    20.6267    41.2556     3.3231    14.6405    14.6392     0.0013    28.0000    28.0080    30.695
     21     0.0000     0.0000     2.0400      1.848      0.000   7400.000      2.000    41.2537   -35.9744   -77.6042     1.2730    -1.5670    -0.0020    -0.0010    20.6267    41.2556     3.3312    14.6405    14.6392     0.0013    28.0000    28.0150    31.245
     22     0.0000     0.0000     2.0450      1.844      0.000   7400.000      2.000    41.2537   -36.0886   -77.8335     1.2730    -1.5670    -0.0020    -0.0010    20.6267    41.2556     3.3395    14.6405    14.6392     0.0013    28.0000    28.0150    31.245
     23     0.0000     0.0000     2.0500      1.871      0.000   7400.000      2.000    41.2537   -36.2008   -78.0580     1.2730    -1.5670    -0.0020    -0.0010    20.6267    41.2556     3.3476    14.6405    14.6392     0.0013    28.0000    28.0150    31.245
     24    -0.0000    -0.0000     2.0550      1.841      0.000   7400.000      2.000    41.2537   -36.3159   -78.2853     1.2730    -1.5670    -0.0020    -0.0010    20.6267    41.2556     3.3558    14.6405    14.6392     0.0013    28.0000    28.0060    31.539
     25     0.0000     0.0000     2.0600      1.901      1.000   7400.000      2.000    41.2537   -36.4291   -78.5127     1.2730    -1.5670    -0.0020    -0.0010    20.6267    41.2556     3.3640    14.6405    14.6392     0.0013    28.0000    28.0060    31.539
# Sum of Counts = 7661
# Center of Mass = 1.999698+/-0.032310
# Full Width Half-Maximum = 0.019348+/-0.018716
# 1:52:00 PM  11/9/2003   scan completed.
