# scan = 141
# date = 11/9/2003
# time = 9:22:21 PM
# experiment = TbPtIn single crystal;  100 plane
# experiment_number = 41
# command = scan h 0 k 0 l 1.94 2.06 .005 preset 2
# builtin_command = scan h 0 k 0 l 1.94 2.06 .005 preset 2
# users = O.Garlea, C.Stassis, J.L.Zarestky
# local_contact = J.L.Zarestky
# scan_title = 002 order parameter DN T = 49.0000
# monochromator = PG002
# analyzer = Pg002
# sense = +-+
# collimation = 48-40-40-102
# samplename = TbPtIn
# sampletype = crystal
# samplemosaic = 30.000000
# latticeconstants = 7.554017,7.554017,3.847681,90.000000,90.000000,120.000000
# ubmatrix = -0.008230,-0.004834,0.259516,-0.134256,-0.130074,-0.012979,0.072618,-0.080146,0.005414
# mode = 0
# plane_normal = -0.022217,-0.027363,0.999379
# ubconf = C:\User\exp41\UBConf\UB08Nov2003_100555PM.ini
# preset_type = normal 
# preset_channel = mcu
# preset_value = 2.000000
# def_x = l
# def_y = detector
# col_headers = 
#   Pt.          h          k          l       time   detector    monitor        mcu         m2         s1         s2        sgl        sgu        stl        stu         a1         a2          q         ei         ef          e       temp    coldtip    tsample
      1     0.0000     0.0000     1.9400      1.848      1.000   7400.000      2.000    41.2537   -33.7520   -73.1583     1.2730    -1.5670    -0.0020    -0.0010    20.6267    41.2556     3.1680    14.6405    14.6392     0.0013    49.0000    49.2950    57.376
      2     0.0000     0.0000     1.9450      1.826      0.000   7400.000      2.000    41.2537   -33.8602   -73.3769     1.2730    -1.5670    -0.0020    -0.0010    20.6267    41.2556     3.1761    14.6405    14.6392     0.0013    49.0000    49.2950    57.376
      3     0.0000     0.0000     1.9500      1.824      0.000   7400.000      2.000    41.2537   -33.9695   -73.5954     1.2730    -1.5670    -0.0020    -0.0010    20.6267    41.2556     3.1843    14.6405    14.6392     0.0013    49.0000    49.2950    57.376
      4     0.0001     0.0001     1.9550      1.869      0.000   7400.000      2.000    41.2537   -34.0797   -73.8168     1.2730    -1.5670    -0.0020    -0.0010    20.6267    41.2556     3.1925    14.6405    14.6392     0.0013    49.0000    49.4050    56.594
      5     0.0000     0.0000     1.9600      1.851      1.000   7400.000      2.000    41.2537   -34.1909   -74.0363     1.2730    -1.5670    -0.0020    -0.0010    20.6267    41.2556     3.2006    14.6405    14.6392     0.0013    49.0000    49.4050    56.594
      6     0.0000     0.0000     1.9650      1.912      0.000   7400.000      2.000    41.2537   -34.3012   -74.2568     1.2730    -1.5670    -0.0020    -0.0010    20.6267    41.2556     3.2088    14.6405    14.6392     0.0013    49.0000    49.4480    58.252
      7    -0.0001    -0.0001     1.9700      1.857      9.000   7400.000      2.000    41.2537   -34.4134   -74.4772     1.2730    -1.5670    -0.0020    -0.0010    20.6267    41.2556     3.2169    14.6405    14.6392     0.0013    49.0000    49.4480    58.252
      8     0.0001     0.0001     1.9750      1.827     50.000   7400.000      2.000    41.2537   -34.5217   -74.7007     1.2730    -1.5670    -0.0020    -0.0010    20.6267    41.2556     3.2252    14.6405    14.6392     0.0013    49.0000    49.4480    58.252
      9    -0.0001    -0.0001     1.9800      1.845    275.000   7400.000      2.000    41.2537   -34.6348   -74.9192     1.2730    -1.5670    -0.0020    -0.0010    20.6267    41.2556     3.2332    14.6405    14.6392     0.0013    49.0000    49.4360    57.112
     10     0.0000     0.0000     1.9850      1.881    693.000   7400.000      2.000    41.2537   -34.7441   -75.1426     1.2730    -1.5670    -0.0020    -0.0010    20.6267    41.2556     3.2415    14.6405    14.6392     0.0013    49.0000    49.4360    57.112
     11     0.0000     0.0000     1.9900      1.865   1129.000   7400.000      2.000    41.2537   -34.8543   -75.3641     1.2730    -1.5670    -0.0020    -0.0010    20.6267    41.2556     3.2496    14.6405    14.6392     0.0013    49.0000    49.4360    57.112
     12     0.0000     0.0000     1.9950      1.877   1339.000   7400.000      2.000    41.2537   -34.9656   -75.5875     1.2730    -1.5670    -0.0020    -0.0010    20.6267    41.2556     3.2578    14.6405    14.6392     0.0013    49.0000    49.3750    55.530
     13     0.0000     0.0000     2.0000      1.855   1449.000   7400.000      2.000    41.2537   -35.0778   -75.8099     1.2730    -1.5670    -0.0020    -0.0010    20.6267    41.2556     3.2659    14.6405    14.6392     0.0013    49.0000    49.3750    55.530
     14     0.0000     0.0000     2.0050      1.893   1231.000   7400.000      2.000    41.2537   -35.1890   -76.0343     1.2730    -1.5670    -0.0020    -0.0010    20.6267    41.2556     3.2741    14.6405    14.6392     0.0013    49.0000    49.3110    57.709
     15     0.0001     0.0001     2.0101      1.844    871.000   7400.000      2.000    41.2537   -35.3012   -76.2597     1.2730    -1.5670    -0.0020    -0.0010    20.6267    41.2556     3.2824    14.6405    14.6392     0.0013    49.0000    49.3110    57.709
     16    -0.0001    -0.0001     2.0150      1.867    359.000   7400.000      2.000    41.2537   -35.4144   -76.4802     1.2730    -1.5670    -0.0020    -0.0010    20.6267    41.2556     3.2904    14.6405    14.6392     0.0013    49.0000    49.3110    57.709
     17     0.0000     0.0000     2.0200      1.875     77.000   7400.000      2.000    41.2537   -35.5246   -76.7056     1.2730    -1.5670    -0.0020    -0.0010    20.6267    41.2556     3.2986    14.6405    14.6392     0.0013    49.0000    49.1870    55.329
     18    -0.0001    -0.0001     2.0250      1.893     13.000   7400.000      2.000    41.2537   -35.6388   -76.9290     1.2730    -1.5670    -0.0020    -0.0010    20.6267    41.2556     3.3067    14.6405    14.6392     0.0013    49.0000    49.1870    55.329
     19     0.0000     0.0000     2.0300      1.877      0.000   7400.000      2.000    41.2537   -35.7490   -77.1554     1.2730    -1.5670    -0.0020    -0.0010    20.6267    41.2556     3.3150    14.6405    14.6392     0.0013    49.0000    49.1870    55.329
     20     0.0000     0.0000     2.0350      1.881      1.000   7400.000      2.000    41.2537   -35.8622   -77.3798     1.2730    -1.5670    -0.0020    -0.0010    20.6267    41.2556     3.3231    14.6405    14.6392     0.0013    49.0000    49.1210    58.385
     21     0.0000     0.0000     2.0400      1.881      1.000   7400.000      2.000    41.2537   -35.9754   -77.6052     1.2730    -1.5670    -0.0020    -0.0010    20.6267    41.2556     3.3313    14.6405    14.6392     0.0013    49.0000    49.1210    58.385
     22     0.0000     0.0000     2.0450      1.847      1.000   7400.000      2.000    41.2537   -36.0886   -77.8326     1.2730    -1.5670    -0.0020    -0.0010    20.6267    41.2556     3.3395    14.6405    14.6392     0.0013    49.0000    49.0110    57.441
     23     0.0000     0.0000     2.0500      1.835      0.000   7400.000      2.000    41.2537   -36.2018   -78.0580     1.2730    -1.5670    -0.0020    -0.0010    20.6267    41.2556     3.3476    14.6405    14.6392     0.0013    49.0000    49.0110    57.441
     24     0.0000     0.0000     2.0550      1.829      1.000   7400.000      2.000    41.2537   -36.3150   -78.2843     1.2730    -1.5670    -0.0020    -0.0010    20.6267    41.2556     3.3557    14.6405    14.6392     0.0013    49.0000    49.0110    57.441
     25     0.0000     0.0000     2.0600      1.849      1.000   7400.000      2.000    41.2537   -36.4291   -78.5127     1.2730    -1.5670    -0.0020    -0.0010    20.6267    41.2556     3.3640    14.6405    14.6392     0.0013    49.0000    48.8940    56.152
# Sum of Counts = 7502
# Center of Mass = 1.998259+/-0.032627
# Full Width Half-Maximum = 0.019110+/-0.019047
# 9:24:17 PM  11/9/2003   scan completed.
