# scan = 163
# date = 11/9/2003
# time = 11:42:55 PM
# experiment = TbPtIn single crystal;  100 plane
# experiment_number = 41
# command = scan h .45 .55 .0025 k .45 .55 .0025 l .45 .55 .0025 preset mcu 10
# builtin_command = scan h .45 .55 .0025 k .45 .55 .0025 l .45 .55 .0025 preset mcu 10
# users = O.Garlea, C.Stassis, J.L.Zarestky
# local_contact = J.L.Zarestky
# scan_title = hhh order parameter DN T = 37.0000
# monochromator = PG002
# analyzer = Pg002
# sense = +-+
# collimation = 48-40-40-102
# samplename = TbPtIn
# sampletype = crystal
# samplemosaic = 30.000000
# latticeconstants = 7.554017,7.554017,3.847681,90.000000,90.000000,120.000000
# ubmatrix = -0.008230,-0.004834,0.259516,-0.134256,-0.130074,-0.012979,0.072618,-0.080146,0.005414
# mode = 0
# plane_normal = -0.022217,-0.027363,0.999379
# ubconf = C:\User\exp41\UBConf\UB08Nov2003_100555PM.ini
# preset_type = normal 
# preset_channel = mcu
# preset_value = 10.000000
# def_x = h
# def_y = detector
# col_headers = 
#   Pt.          h          k          l       time   detector    monitor        mcu         m2         s1         s2        sgl        sgu        stl        stu         a1         a2          q         ei         ef          e       temp    coldtip    tsample
      1     0.4500     0.4500     0.4500      9.406      2.000  37000.000     10.000    41.2537    36.9715   -22.7617     1.2730    -1.5670    -0.0020    -0.0010    20.6267    41.2556     1.0490    14.6405    14.6392     0.0013    37.0000    37.0140    43.958
      2     0.4525     0.4525     0.4525      9.294      4.000  37000.000     10.000    41.2537    36.9094   -22.8887     1.2730    -1.5670    -0.0020    -0.0010    20.6267    41.2556     1.0548    14.6405    14.6392     0.0013    37.0000    36.9700    41.099
      3     0.4550     0.4550     0.4550      9.262      3.000  37000.000     10.000    41.2537    36.8455   -23.0176     1.2730    -1.5670    -0.0020    -0.0010    20.6267    41.2556     1.0607    14.6405    14.6392     0.0013    37.0000    36.9820    40.098
      4     0.4575     0.4575     0.4575      9.343      0.000  37000.000     10.000    41.2537    36.7805   -23.1465     1.2730    -1.5670    -0.0020    -0.0010    20.6267    41.2556     1.0665    14.6405    14.6392     0.0013    37.0000    36.9880    40.254
      5     0.4600     0.4600     0.4600      9.321      1.000  37000.000     10.000    41.2537    36.7185   -23.2735     1.2730    -1.5670    -0.0020    -0.0010    20.6267    41.2556     1.0723    14.6405    14.6392     0.0013    37.0000    37.0360    42.226
      6     0.4625     0.4625     0.4625      9.327      4.000  37000.000     10.000    41.2537    36.6535   -23.4015     1.2730    -1.5670    -0.0020    -0.0010    20.6267    41.2556     1.0781    14.6405    14.6392     0.0013    37.0000    37.0030    40.316
      7     0.4651     0.4650     0.4650      9.248      3.000  37000.000     10.000    41.2537    36.5886   -23.5333     1.2730    -1.5670    -0.0020    -0.0010    20.6267    41.2556     1.0841    14.6405    14.6392     0.0013    37.0000    37.0150    42.013
      8     0.4675     0.4675     0.4675      9.302      2.000  37000.000     10.000    41.2537    36.5236   -23.6603     1.2730    -1.5670    -0.0020    -0.0010    20.6267    41.2556     1.0899    14.6405    14.6392     0.0013    37.0000    37.0240    42.429
      9     0.4700     0.4700     0.4700      9.320      5.000  37000.000     10.000    41.2537    36.4596   -23.7863     1.2730    -1.5670    -0.0020    -0.0010    20.6267    41.2556     1.0956    14.6405    14.6392     0.0013    37.0000    37.0220    43.242
     10     0.4725     0.4725     0.4725      9.289      4.000  37000.000     10.000    41.2537    36.3976   -23.9143     1.2730    -1.5670    -0.0020    -0.0010    20.6267    41.2556     1.1014    14.6405    14.6392     0.0013    37.0000    37.0100    43.316
     11     0.4750     0.4750     0.4750      9.349      2.000  37000.000     10.000    41.2537    36.3327   -24.0442     1.2730    -1.5670    -0.0020    -0.0010    20.6267    41.2556     1.1073    14.6405    14.6392     0.0013    37.0000    36.9930    43.279
     12     0.4776     0.4775     0.4775      9.296      1.000  37000.000     10.000    41.2537    36.2687   -24.1741     1.2730    -1.5670    -0.0020    -0.0010    20.6267    41.2556     1.1132    14.6405    14.6392     0.0013    37.0000    36.9950    43.404
     13     0.4800     0.4800     0.4800      9.313      4.000  37000.000     10.000    41.2537    36.2037   -24.3001     1.2730    -1.5670    -0.0020    -0.0010    20.6267    41.2556     1.1189    14.6405    14.6392     0.0013    37.0000    36.9790    43.051
     14     0.4825     0.4825     0.4825      9.281     15.000  37000.000     10.000    41.2537    36.1398   -24.4290     1.2730    -1.5670    -0.0020    -0.0010    20.6267    41.2556     1.1247    14.6405    14.6392     0.0013    37.0000    36.9720    43.813
     15     0.4850     0.4850     0.4850      9.365     60.000  37000.000     10.000    41.2537    36.0758   -24.5580     1.2730    -1.5670    -0.0020    -0.0010    20.6267    41.2556     1.1306    14.6405    14.6392     0.0013    37.0000    36.9530    42.370
     16     0.4876     0.4875     0.4875      9.338    259.000  37000.000     10.000    41.2537    36.0108   -24.6879     1.2730    -1.5670    -0.0020    -0.0010    20.6267    41.2556     1.1365    14.6405    14.6392     0.0013    37.0000    37.0140    44.832
     17     0.4900     0.4900     0.4900      9.342    619.000  37000.000     10.000    41.2537    35.9469   -24.8139     1.2730    -1.5670    -0.0020    -0.0010    20.6267    41.2556     1.1422    14.6405    14.6392     0.0013    37.0000    36.9840    43.241
     18     0.4925     0.4925     0.4925      9.304    970.000  37000.000     10.000    41.2537    35.8819   -24.9428     1.2730    -1.5670    -0.0020    -0.0010    20.6267    41.2556     1.1480    14.6405    14.6392     0.0013    37.0000    36.9950    43.836
     19     0.4950     0.4950     0.4950      9.292   1423.000  37000.000     10.000    41.2537    35.8189   -25.0727     1.2730    -1.5670    -0.0020    -0.0010    20.6267    41.2556     1.1539    14.6405    14.6392     0.0013    37.0000    37.0040    44.120
     20     0.4975     0.4975     0.4975      9.350   2115.000  37000.000     10.000    41.2537    35.7539   -25.2017     1.2730    -1.5670    -0.0020    -0.0010    20.6267    41.2556     1.1597    14.6405    14.6392     0.0013    37.0000    37.0040    43.184
     21     0.5000     0.5000     0.5000      9.402   2720.000  37000.000     10.000    41.2537    35.6890   -25.3306     1.2730    -1.5670    -0.0020    -0.0010    20.6267    41.2556     1.1656    14.6405    14.6392     0.0013    37.0000    37.0060    44.007
     22     0.5025     0.5025     0.5025      9.374   2627.000  37000.000     10.000    41.2537    35.6250   -25.4576     1.2730    -1.5670    -0.0020    -0.0010    20.6267    41.2556     1.1713    14.6405    14.6392     0.0013    37.0000    36.9910    42.593
     23     0.5050     0.5050     0.5050      9.363   1811.000  37000.000     10.000    41.2537    35.5610   -25.5875     1.2730    -1.5670    -0.0020    -0.0010    20.6267    41.2556     1.1772    14.6405    14.6392     0.0013    37.0000    36.9870    42.610
     24     0.5075     0.5075     0.5075      9.367    831.000  37000.000     10.000    41.2537    35.4961   -25.7154     1.2730    -1.5670    -0.0020    -0.0010    20.6267    41.2556     1.1830    14.6405    14.6392     0.0013    37.0000    36.9970    42.727
     25     0.5100     0.5099     0.5100      9.286    303.000  37000.000     10.000    41.2537    35.4321   -25.8434     1.2730    -1.5670    -0.0020    -0.0010    20.6267    41.2556     1.1888    14.6405    14.6392     0.0013    37.0000    37.0040    43.807
     26     0.5125     0.5125     0.5125      9.333    117.000  37000.000     10.000    41.2537    35.3681   -25.9733     1.2730    -1.5670    -0.0020    -0.0010    20.6267    41.2556     1.1946    14.6405    14.6392     0.0013    37.0000    36.9930    41.757
     27     0.5150     0.5150     0.5150      9.331     44.000  37000.000     10.000    41.2537    35.3031   -26.1032     1.2730    -1.5670    -0.0020    -0.0010    20.6267    41.2556     1.2005    14.6405    14.6392     0.0013    37.0000    37.0550    41.472
     28     0.5175     0.5175     0.5175      9.293     13.000  37000.000     10.000    41.2537    35.2382   -26.2312     1.2730    -1.5670    -0.0020    -0.0010    20.6267    41.2556     1.2063    14.6405    14.6392     0.0013    37.0000    37.0290    43.651
     29     0.5201     0.5200     0.5200      9.294      6.000  37000.000     10.000    41.2537    35.1752   -26.3621     1.2730    -1.5670    -0.0020    -0.0010    20.6267    41.2556     1.2122    14.6405    14.6392     0.0013    37.0000    37.0070    43.308
     30     0.5225     0.5225     0.5225      9.281      8.000  37000.000     10.000    41.2537    35.1093   -26.4891     1.2730    -1.5670    -0.0020    -0.0010    20.6267    41.2556     1.2179    14.6405    14.6392     0.0013    37.0000    37.0210    44.329
     31     0.5250     0.5250     0.5250      9.349      6.000  37000.000     10.000    41.2537    35.0463   -26.6190     1.2730    -1.5670    -0.0020    -0.0010    20.6267    41.2556     1.2238    14.6405    14.6392     0.0013    37.0000    36.9810    42.964
     32     0.5275     0.5275     0.5275      9.336      2.000  37000.000     10.000    41.2537    34.9803   -26.7489     1.2730    -1.5670    -0.0020    -0.0010    20.6267    41.2556     1.2297    14.6405    14.6392     0.0013    37.0000    36.9680    42.690
     33     0.5300     0.5300     0.5300      9.255      3.000  37000.000     10.000    41.2537    34.9163   -26.8769     1.2730    -1.5670    -0.0020    -0.0010    20.6267    41.2556     1.2355    14.6405    14.6392     0.0013    37.0000    36.9600    42.373
     34     0.5325     0.5324     0.5325      9.219      3.000  37000.000     10.000    41.2537    34.8524   -27.0048     1.2730    -1.5670    -0.0020    -0.0010    20.6267    41.2556     1.2412    14.6405    14.6392     0.0013    37.0000    36.9760    43.615
     35     0.5351     0.5350     0.5350      9.267      1.000  37000.000     10.000    41.2537    34.7874   -27.1367     1.2730    -1.5670    -0.0020    -0.0010    20.6267    41.2556     1.2472    14.6405    14.6392     0.0013    37.0000    36.9900    43.947
     36     0.5375     0.5375     0.5375      9.296      5.000  37000.000     10.000    41.2537    34.7224   -27.2646     1.2730    -1.5670    -0.0020    -0.0010    20.6267    41.2556     1.2529    14.6405    14.6392     0.0013    37.0000    36.9970    43.179
     37     0.5400     0.5400     0.5400      9.276      3.000  37000.000     10.000    41.2537    34.6575   -27.3936     1.2730    -1.5670    -0.0020    -0.0010    20.6267    41.2556     1.2588    14.6405    14.6392     0.0013    37.0000    37.0180    43.710
     38     0.5425     0.5425     0.5425      9.359      2.000  37000.000     10.000    41.2537    34.5935   -27.5235     1.2730    -1.5670    -0.0020    -0.0010    20.6267    41.2556     1.2646    14.6405    14.6392     0.0013    37.0000    37.0120    43.519
     39     0.5451     0.5450     0.5450      9.315      2.000  37000.000     10.000    41.2537    34.5285   -27.6544     1.2730    -1.5670    -0.0020    -0.0010    20.6267    41.2556     1.2705    14.6405    14.6392     0.0013    37.0000    36.9780    40.564
     40     0.5475     0.5475     0.5475      9.329      5.000  37000.000     10.000    41.2537    34.4636   -27.7814     1.2730    -1.5670    -0.0020    -0.0010    20.6267    41.2556     1.2762    14.6405    14.6392     0.0013    37.0000    36.9950    41.291
     41     0.5500     0.5500     0.5500      9.311      5.000  37000.000     10.000    41.2537    34.3996   -27.9113     1.2730    -1.5670    -0.0020    -0.0010    20.6267    41.2556     1.2821    14.6405    14.6392     0.0013    37.0000    37.0080    41.748
# Sum of Counts = 14013
# Center of Mass = 0.499821+/-0.005971
# Full Width Half-Maximum = 0.011943+/-0.002716
# 11:50:47 PM  11/9/2003   scan completed.
