# scan = 48
# date = 11/9/2003
# time = 10:26:44 AM
# experiment = TbPtIn single crystal;  100 plane
# experiment_number = 41
# command = scan h .45 .55 .0025 k .45 .55 .0025 l .45 .55 .0025 preset mcu 10
# builtin_command = scan h .45 .55 .0025 k .45 .55 .0025 l .45 .55 .0025 preset mcu 10
# users = O.Garlea, C.Stassis, J.L.Zarestky
# local_contact = J.L.Zarestky
# scan_title = hhh order parameter scan base T
# monochromator = PG002
# analyzer = Pg002
# sense = +-+
# collimation = 48-40-40-102
# samplename = TbPtIn
# sampletype = crystal
# samplemosaic = 30.000000
# latticeconstants = 7.554017,7.554017,3.847681,90.000000,90.000000,120.000000
# ubmatrix = -0.008230,-0.004834,0.259516,-0.134256,-0.130074,-0.012979,0.072618,-0.080146,0.005414
# mode = 0
# plane_normal = -0.022217,-0.027363,0.999379
# ubconf = C:\User\exp41\UBConf\UB08Nov2003_100555PM.ini
# preset_type = normal 
# preset_channel = mcu
# preset_value = 10.000000
# def_x = h
# def_y = detector
# col_headers = 
#   Pt.          h          k          l       time   detector    monitor        mcu         m2         s1         s2        sgl        sgu        stl        stu         a1         a2          q         ei         ef          e       temp    coldtip    tsample
      1     0.4500     0.4500     0.4500      9.333      3.000  37000.000     10.000    41.2537    36.9744   -22.7617     1.2730    -1.5670    -0.0020    -0.0010    20.6267    41.2556     1.0490    14.6405    14.6392     0.0013   295.0000     9.8881     9.599
      2     0.4525     0.4525     0.4525      9.346      0.000  37000.000     10.000    41.2537    36.9094   -22.8887     1.2730    -1.5670    -0.0020    -0.0010    20.6267    41.2556     1.0548    14.6405    14.6392     0.0013   295.0000     9.8872     9.603
      3     0.4550     0.4550     0.4550      9.355      3.000  37000.000     10.000    41.2537    36.8445   -23.0166     1.2730    -1.5670    -0.0020    -0.0010    20.6267    41.2556     1.0606    14.6405    14.6392     0.0013   295.0000     9.8101     9.584
      4     0.4575     0.4575     0.4575      9.463      2.000  37000.000     10.000    41.2537    36.7805   -23.1465     1.2730    -1.5670    -0.0020    -0.0010    20.6267    41.2556     1.0665    14.6405    14.6392     0.0013   295.0000     9.8767     9.567
      5     0.4600     0.4600     0.4600      9.371      1.000  37000.000     10.000    41.2537    36.7175   -23.2735     1.2730    -1.5670    -0.0020    -0.0010    20.6267    41.2556     1.0723    14.6405    14.6392     0.0013   295.0000     9.8772     9.625
      6     0.4625     0.4624     0.4625      9.416      2.000  37000.000     10.000    41.2537    36.6526   -23.4005     1.2730    -1.5670    -0.0020    -0.0010    20.6267    41.2556     1.0781    14.6405    14.6392     0.0013   295.0000     9.8787     9.594
      7     0.4651     0.4650     0.4650      9.533      0.000  37000.000     10.000    41.2537    36.5886   -23.5324     1.2730    -1.5670    -0.0020    -0.0010    20.6267    41.2556     1.0840    14.6405    14.6392     0.0013   295.0000     9.8782     9.593
      8     0.4676     0.4675     0.4675      9.389      2.000  37000.000     10.000    41.2537    36.5246   -23.6613     1.2730    -1.5670    -0.0020    -0.0010    20.6267    41.2556     1.0899    14.6405    14.6392     0.0013   295.0000     9.8015     9.578
      9     0.4700     0.4700     0.4700      9.382      4.000  37000.000     10.000    41.2537    36.4606   -23.7863     1.2730    -1.5670    -0.0020    -0.0010    20.6267    41.2556     1.0956    14.6405    14.6392     0.0013   295.0000     9.8726     9.573
     10     0.4725     0.4725     0.4725      9.419      1.000  37000.000     10.000    41.2537    36.3967   -23.9152     1.2730    -1.5670    -0.0020    -0.0010    20.6267    41.2556     1.1014    14.6405    14.6392     0.0013   295.0000     9.8769     9.618
     11     0.4750     0.4750     0.4750      9.380      3.000  37000.000     10.000    41.2537    36.3327   -24.0432     1.2730    -1.5670    -0.0020    -0.0010    20.6267    41.2556     1.1072    14.6405    14.6392     0.0013   295.0000     9.8786     9.579
     12     0.4775     0.4775     0.4775      9.405      0.000  37000.000     10.000    41.2537    36.2677   -24.1721     1.2730    -1.5670    -0.0020    -0.0010    20.6267    41.2556     1.1131    14.6405    14.6392     0.0013   295.0000     9.8132     9.591
     13     0.4800     0.4800     0.4800      9.321      9.000  37000.000     10.000    41.2537    36.2037   -24.3011     1.2730    -1.5670    -0.0020    -0.0010    20.6267    41.2556     1.1189    14.6405    14.6392     0.0013   295.0000     9.9207     9.626
     14     0.4825     0.4825     0.4825      9.411     27.000  37000.000     10.000    41.2537    36.1398   -24.4290     1.2730    -1.5670    -0.0020    -0.0010    20.6267    41.2556     1.1247    14.6405    14.6392     0.0013   295.0000     9.8139     9.567
     15     0.4850     0.4850     0.4850      9.394    123.000  37000.000     10.000    41.2537    36.0748   -24.5589     1.2730    -1.5670    -0.0020    -0.0010    20.6267    41.2556     1.1306    14.6405    14.6392     0.0013   295.0000     9.8857     9.648
     16     0.4875     0.4875     0.4875      9.345    486.000  37000.000     10.000    41.2537    36.0118   -24.6869     1.2730    -1.5670    -0.0020    -0.0010    20.6267    41.2556     1.1364    14.6405    14.6392     0.0013   295.0000     9.8888     9.587
     17     0.4900     0.4900     0.4900      9.382   1208.000  37000.000     10.000    41.2537    35.9478   -24.8148     1.2730    -1.5670    -0.0020    -0.0010    20.6267    41.2556     1.1422    14.6405    14.6392     0.0013   295.0000     9.8952     9.588
     18     0.4925     0.4925     0.4925      9.350   1928.000  37000.000     10.000    41.2537    35.8829   -24.9428     1.2730    -1.5670    -0.0020    -0.0010    20.6267    41.2556     1.1480    14.6405    14.6392     0.0013   295.0000     9.9006     9.642
     19     0.4950     0.4950     0.4950      9.372   2778.000  37000.000     10.000    41.2537    35.8189   -25.0717     1.2730    -1.5670    -0.0020    -0.0010    20.6267    41.2556     1.1539    14.6405    14.6392     0.0013   295.0000     9.8442     9.602
     20     0.4975     0.4975     0.4975      9.328   4104.000  37000.000     10.000    41.2537    35.7539   -25.2017     1.2730    -1.5670    -0.0020    -0.0010    20.6267    41.2556     1.1597    14.6405    14.6392     0.0013   295.0000     9.9000     9.606
     21     0.5000     0.5000     0.5000      9.378   5166.000  37000.000     10.000    41.2537    35.6890   -25.3306     1.2730    -1.5670    -0.0020    -0.0010    20.6267    41.2556     1.1656    14.6405    14.6392     0.0013   295.0000     9.9008     9.605
     22     0.5025     0.5025     0.5025      9.345   5033.000  37000.000     10.000    41.2537    35.6250   -25.4576     1.2730    -1.5670    -0.0020    -0.0010    20.6267    41.2556     1.1713    14.6405    14.6392     0.0013   295.0000     9.9031     9.598
     23     0.5050     0.5050     0.5050      9.364   3517.000  37000.000     10.000    41.2537    35.5600   -25.5875     1.2730    -1.5670    -0.0020    -0.0010    20.6267    41.2556     1.1772    14.6405    14.6392     0.0013   295.0000     9.8638     9.614
     24     0.5075     0.5075     0.5075      9.383   1838.000  37000.000     10.000    41.2537    35.4961   -25.7164     1.2730    -1.5670    -0.0020    -0.0010    20.6267    41.2556     1.1830    14.6405    14.6392     0.0013   295.0000     9.9102     9.611
     25     0.5100     0.5100     0.5100      9.396    700.000  37000.000     10.000    41.2537    35.4321   -25.8444     1.2730    -1.5670    -0.0020    -0.0010    20.6267    41.2556     1.1888    14.6405    14.6392     0.0013   295.0000     9.8616     9.627
     26     0.5125     0.5125     0.5125      9.420    277.000  37000.000     10.000    41.2537    35.3671   -25.9743     1.2730    -1.5670    -0.0020    -0.0010    20.6267    41.2556     1.1947    14.6405    14.6392     0.0013   295.0000     9.9099     9.638
     27     0.5150     0.5150     0.5150      9.279    127.000  37000.000     10.000    41.2537    35.3031   -26.1022     1.2730    -1.5670    -0.0020    -0.0010    20.6267    41.2556     1.2005    14.6405    14.6392     0.0013   295.0000     9.9115     9.613
     28     0.5175     0.5175     0.5175      9.360     43.000  37000.000     10.000    41.2537    35.2382   -26.2312     1.2730    -1.5670    -0.0020    -0.0010    20.6267    41.2556     1.2063    14.6405    14.6392     0.0013   295.0000     9.9184     9.633
     29     0.5200     0.5200     0.5200      9.435      5.000  37000.000     10.000    41.2537    35.1742   -26.3621     1.2730    -1.5670    -0.0020    -0.0010    20.6267    41.2556     1.2122    14.6405    14.6392     0.0013   295.0000     9.9201     9.661
     30     0.5225     0.5225     0.5225      9.408      6.000  37000.000     10.000    41.2537    35.1102   -26.4891     1.2730    -1.5670    -0.0020    -0.0010    20.6267    41.2556     1.2179    14.6405    14.6392     0.0013   295.0000     9.8815     9.650
     31     0.5250     0.5250     0.5250      9.324      1.000  37000.000     10.000    41.2537    35.0453   -26.6200     1.2730    -1.5670    -0.0020    -0.0010    20.6267    41.2556     1.2239    14.6405    14.6392     0.0013   295.0000     9.9094     9.612
     32     0.5275     0.5275     0.5275      9.370      1.000  37000.000     10.000    41.2537    34.9803   -26.7489     1.2730    -1.5670    -0.0020    -0.0010    20.6267    41.2556     1.2297    14.6405    14.6392     0.0013   295.0000     9.9109     9.633
     33     0.5300     0.5300     0.5300      9.390      2.000  37000.000     10.000    41.2537    34.9173   -26.8759     1.2730    -1.5670    -0.0020    -0.0010    20.6267    41.2556     1.2354    14.6405    14.6392     0.0013   295.0000     9.8916     9.659
     34     0.5325     0.5325     0.5325      9.411      3.000  37000.000     10.000    41.2537    34.8514   -27.0058     1.2730    -1.5670    -0.0020    -0.0010    20.6267    41.2556     1.2413    14.6405    14.6392     0.0013   295.0000     9.9173     9.633
     35     0.5351     0.5350     0.5350      9.340      3.000  37000.000     10.000    41.2537    34.7884   -27.1367     1.2730    -1.5670    -0.0020    -0.0010    20.6267    41.2556     1.2472    14.6405    14.6392     0.0013   295.0000     9.8947     9.637
     36     0.5375     0.5375     0.5375      9.380      3.000  37000.000     10.000    41.2537    34.7224   -27.2646     1.2730    -1.5670    -0.0020    -0.0010    20.6267    41.2556     1.2529    14.6405    14.6392     0.0013   295.0000     9.9194     9.634
     37     0.5400     0.5400     0.5400      9.345      0.000  37000.000     10.000    41.2537    34.6585   -27.3936     1.2730    -1.5670    -0.0020    -0.0010    20.6267    41.2556     1.2588    14.6405    14.6392     0.0013   295.0000     9.9223     9.639
     38     0.5425     0.5425     0.5425      9.348      1.000  37000.000     10.000    41.2537    34.5935   -27.5245     1.2730    -1.5670    -0.0020    -0.0010    20.6267    41.2556     1.2647    14.6405    14.6392     0.0013   295.0000     9.9218     9.648
     39     0.5450     0.5450     0.5450      9.394      3.000  37000.000     10.000    41.2537    34.5285   -27.6534     1.2730    -1.5670    -0.0020    -0.0010    20.6267    41.2556     1.2705    14.6405    14.6392     0.0013   295.0000     9.9047     9.639
     40     0.5475     0.5474     0.5475      9.375      1.000  37000.000     10.000    41.2537    34.4626   -27.7814     1.2730    -1.5670    -0.0020    -0.0010    20.6267    41.2556     1.2762    14.6405    14.6392     0.0013   295.0000     9.9146     9.632
     41     0.5500     0.5499     0.5500      9.390      1.000  37000.000     10.000    41.2537    34.3986   -27.9103     1.2730    -1.5670    -0.0020    -0.0010    20.6267    41.2556     1.2820    14.6405    14.6392     0.0013   295.0000     9.9040     9.645
# Sum of Counts = 27415
# Center of Mass = 0.499926+/-0.004270
# Full Width Half-Maximum = 0.011327+/-0.002076
# 10:34:41 AM  11/9/2003   scan completed.
