# scan = 53
# date = 11/9/2003
# time = 11:01:54 AM
# experiment = TbPtIn single crystal;  100 plane
# experiment_number = 41
# command = scan h .45 .55 .0025 k .45 .55 .0025 l .45 .55 .0025 preset mcu 10
# builtin_command = scan h .45 .55 .0025 k .45 .55 .0025 l .45 .55 .0025 preset mcu 10
# users = O.Garlea, C.Stassis, J.L.Zarestky
# local_contact = J.L.Zarestky
# scan_title = hhh order parameter UP T = 13.0000
# monochromator = PG002
# analyzer = Pg002
# sense = +-+
# collimation = 48-40-40-102
# samplename = TbPtIn
# sampletype = crystal
# samplemosaic = 30.000000
# latticeconstants = 7.554017,7.554017,3.847681,90.000000,90.000000,120.000000
# ubmatrix = -0.008230,-0.004834,0.259516,-0.134256,-0.130074,-0.012979,0.072618,-0.080146,0.005414
# mode = 0
# plane_normal = -0.022217,-0.027363,0.999379
# ubconf = C:\User\exp41\UBConf\UB08Nov2003_100555PM.ini
# preset_type = normal 
# preset_channel = mcu
# preset_value = 10.000000
# def_x = h
# def_y = detector
# col_headers = 
#   Pt.          h          k          l       time   detector    monitor        mcu         m2         s1         s2        sgl        sgu        stl        stu         a1         a2          q         ei         ef          e       temp    coldtip    tsample
      1     0.4500     0.4500     0.4500      9.370      3.000  37000.000     10.000    41.2537    36.9715   -22.7617     1.2730    -1.5670    -0.0020    -0.0010    20.6267    41.2556     1.0490    14.6405    14.6392     0.0013    13.0000    13.0030    12.790
      2     0.4525     0.4525     0.4525      9.453      2.000  37000.000     10.000    41.2537    36.9094   -22.8887     1.2730    -1.5670    -0.0020    -0.0010    20.6267    41.2556     1.0548    14.6405    14.6392     0.0013    13.0000    12.9720    12.710
      3     0.4550     0.4550     0.4550      9.405      3.000  37000.000     10.000    41.2537    36.8445   -23.0176     1.2730    -1.5670    -0.0020    -0.0010    20.6267    41.2556     1.0607    14.6405    14.6392     0.0013    13.0000    12.9670    12.695
      4     0.4575     0.4575     0.4575      9.465      1.000  37000.000     10.000    41.2537    36.7815   -23.1465     1.2730    -1.5670    -0.0020    -0.0010    20.6267    41.2556     1.0665    14.6405    14.6392     0.0013    13.0000    13.0030    12.779
      5     0.4600     0.4600     0.4600      9.463      2.000  37000.000     10.000    41.2537    36.7175   -23.2725     1.2730    -1.5670    -0.0020    -0.0010    20.6267    41.2556     1.0722    14.6405    14.6392     0.0013    13.0000    12.9660    12.746
      6     0.4625     0.4625     0.4625      9.354      6.000  37000.000     10.000    41.2537    36.6535   -23.4015     1.2730    -1.5670    -0.0020    -0.0010    20.6267    41.2556     1.0781    14.6405    14.6392     0.0013    13.0000    13.0070    12.782
      7     0.4651     0.4650     0.4650      9.427      0.000  37000.000     10.000    41.2537    36.5886   -23.5324     1.2730    -1.5670    -0.0020    -0.0010    20.6267    41.2556     1.0840    14.6405    14.6392     0.0013    13.0000    12.9640    12.733
      8     0.4675     0.4675     0.4675      9.521      4.000  37000.000     10.000    41.2537    36.5236   -23.6603     1.2730    -1.5670    -0.0020    -0.0010    20.6267    41.2556     1.0899    14.6405    14.6392     0.0013    13.0000    12.9640    12.751
      9     0.4700     0.4700     0.4700      9.457      1.000  37000.000     10.000    41.2537    36.4606   -23.7863     1.2730    -1.5670    -0.0020    -0.0010    20.6267    41.2556     1.0956    14.6405    14.6392     0.0013    13.0000    12.9650    12.759
     10     0.4725     0.4725     0.4725      9.492      3.000  37000.000     10.000    41.2537    36.3967   -23.9143     1.2730    -1.5670    -0.0020    -0.0010    20.6267    41.2556     1.1014    14.6405    14.6392     0.0013    13.0000    12.9640    12.741
     11     0.4750     0.4750     0.4750      9.412      0.000  37000.000     10.000    41.2537    36.3327   -24.0432     1.2730    -1.5670    -0.0020    -0.0010    20.6267    41.2556     1.1072    14.6405    14.6392     0.0013    13.0000    12.9650    12.734
     12     0.4775     0.4775     0.4775      9.416      2.000  37000.000     10.000    41.2537    36.2677   -24.1731     1.2730    -1.5670    -0.0020    -0.0010    20.6267    41.2556     1.1131    14.6405    14.6392     0.0013    13.0000    12.9680    12.783
     13     0.4800     0.4800     0.4800      9.288      5.000  37000.000     10.000    41.2537    36.2037   -24.3011     1.2730    -1.5670    -0.0020    -0.0010    20.6267    41.2556     1.1189    14.6405    14.6392     0.0013    13.0000    12.9680    12.743
     14     0.4825     0.4825     0.4825      9.275     25.000  37000.000     10.000    41.2537    36.1398   -24.4290     1.2730    -1.5670    -0.0020    -0.0010    20.6267    41.2556     1.1247    14.6405    14.6392     0.0013    13.0000    12.9760    12.749
     15     0.4851     0.4850     0.4850      9.281    132.000  37000.000     10.000    41.2537    36.0768   -24.5589     1.2730    -1.5670    -0.0020    -0.0010    20.6267    41.2556     1.1306    14.6405    14.6392     0.0013    13.0000    12.9720    12.776
     16     0.4875     0.4875     0.4875      9.328    447.000  37000.000     10.000    41.2537    36.0118   -24.6869     1.2730    -1.5670    -0.0020    -0.0010    20.6267    41.2556     1.1364    14.6405    14.6392     0.0013    13.0000    12.9770    12.752
     17     0.4900     0.4900     0.4900      9.346   1152.000  37000.000     10.000    41.2537    35.9478   -24.8139     1.2730    -1.5670    -0.0020    -0.0010    20.6267    41.2556     1.1422    14.6405    14.6392     0.0013    13.0000    13.0120    12.780
     18     0.4925     0.4925     0.4925      9.372   1921.000  37000.000     10.000    41.2537    35.8829   -24.9438     1.2730    -1.5670    -0.0020    -0.0010    20.6267    41.2556     1.1481    14.6405    14.6392     0.0013    13.0000    12.9840    12.770
     19     0.4950     0.4950     0.4950      9.306   2748.000  37000.000     10.000    41.2537    35.8189   -25.0717     1.2730    -1.5670    -0.0020    -0.0010    20.6267    41.2556     1.1539    14.6405    14.6392     0.0013    13.0000    12.9830    12.779
     20     0.4976     0.4975     0.4975      9.313   3973.000  37000.000     10.000    41.2537    35.7539   -25.2026     1.2730    -1.5670    -0.0020    -0.0010    20.6267    41.2556     1.1598    14.6405    14.6392     0.0013    13.0000    13.0190    12.766
     21     0.5000     0.5000     0.5000      9.265   5076.000  37000.000     10.000    41.2537    35.6890   -25.3306     1.2730    -1.5670    -0.0020    -0.0010    20.6267    41.2556     1.1656    14.6405    14.6392     0.0013    13.0000    12.9840    12.773
     22     0.5025     0.5024     0.5025      9.389   4962.000  37000.000     10.000    41.2537    35.6240   -25.4576     1.2730    -1.5670    -0.0020    -0.0010    20.6267    41.2556     1.1713    14.6405    14.6392     0.0013    13.0000    12.9920    12.745
     23     0.5050     0.5050     0.5050      9.379   3555.000  37000.000     10.000    41.2537    35.5600   -25.5875     1.2730    -1.5670    -0.0020    -0.0010    20.6267    41.2556     1.1772    14.6405    14.6392     0.0013    13.0000    13.0240    12.761
     24     0.5075     0.5075     0.5075      9.374   1812.000  37000.000     10.000    41.2537    35.4961   -25.7164     1.2730    -1.5670    -0.0020    -0.0010    20.6267    41.2556     1.1830    14.6405    14.6392     0.0013    13.0000    12.9960    12.753
     25     0.5100     0.5100     0.5100      9.349    698.000  37000.000     10.000    41.2537    35.4321   -25.8444     1.2730    -1.5670    -0.0020    -0.0010    20.6267    41.2556     1.1888    14.6405    14.6392     0.0013    13.0000    13.0310    12.817
     26     0.5125     0.5125     0.5125      9.385    277.000  37000.000     10.000    41.2537    35.3681   -25.9733     1.2730    -1.5670    -0.0020    -0.0010    20.6267    41.2556     1.1946    14.6405    14.6392     0.0013    13.0000    13.0010    12.750
     27     0.5150     0.5150     0.5150      9.442    111.000  37000.000     10.000    41.2537    35.3031   -26.1032     1.2730    -1.5670    -0.0020    -0.0010    20.6267    41.2556     1.2005    14.6405    14.6392     0.0013    13.0000    13.0010    12.749
     28     0.5175     0.5175     0.5175      9.346     44.000  37000.000     10.000    41.2537    35.2382   -26.2322     1.2730    -1.5670    -0.0020    -0.0010    20.6267    41.2556     1.2063    14.6405    14.6392     0.0013    13.0000    13.0050    12.798
     29     0.5200     0.5200     0.5200      9.323     13.000  37000.000     10.000    41.2537    35.1742   -26.3611     1.2730    -1.5670    -0.0020    -0.0010    20.6267    41.2556     1.2122    14.6405    14.6392     0.0013    13.0000    13.0010    12.763
     30     0.5225     0.5225     0.5225      9.442      2.000  37000.000     10.000    41.2537    35.1102   -26.4891     1.2730    -1.5670    -0.0020    -0.0010    20.6267    41.2556     1.2179    14.6405    14.6392     0.0013    13.0000    13.0120    12.795
     31     0.5250     0.5250     0.5250      9.444      7.000  37000.000     10.000    41.2537    35.0453   -26.6190     1.2730    -1.5670    -0.0020    -0.0010    20.6267    41.2556     1.2238    14.6405    14.6392     0.0013    13.0000    13.0070    12.777
     32     0.5275     0.5275     0.5275      9.427      3.000  37000.000     10.000    41.2537    34.9803   -26.7489     1.2730    -1.5670    -0.0020    -0.0010    20.6267    41.2556     1.2297    14.6405    14.6392     0.0013    13.0000    13.0090    12.758
     33     0.5300     0.5300     0.5300      9.399      0.000  37000.000     10.000    41.2537    34.9173   -26.8759     1.2730    -1.5670    -0.0020    -0.0010    20.6267    41.2556     1.2354    14.6405    14.6392     0.0013    13.0000    13.0140    12.752
     34     0.5325     0.5325     0.5325      9.448      1.000  37000.000     10.000    41.2537    34.8514   -27.0058     1.2730    -1.5670    -0.0020    -0.0010    20.6267    41.2556     1.2413    14.6405    14.6392     0.0013    13.0000    13.0320    12.778
     35     0.5350     0.5350     0.5350      9.359      1.000  37000.000     10.000    41.2537    34.7864   -27.1357     1.2730    -1.5670    -0.0020    -0.0010    20.6267    41.2556     1.2471    14.6405    14.6392     0.0013    13.0000    13.0110    12.783
     36     0.5375     0.5375     0.5375      9.423      4.000  37000.000     10.000    41.2537    34.7224   -27.2646     1.2730    -1.5670    -0.0020    -0.0010    20.6267    41.2556     1.2529    14.6405    14.6392     0.0013    13.0000    13.0160    12.764
     37     0.5400     0.5400     0.5400      9.354      1.000  37000.000     10.000    41.2537    34.6575   -27.3936     1.2730    -1.5670    -0.0020    -0.0010    20.6267    41.2556     1.2588    14.6405    14.6392     0.0013    13.0000    13.0210    12.766
     38     0.5425     0.5425     0.5425      9.360      3.000  37000.000     10.000    41.2537    34.5925   -27.5235     1.2730    -1.5670    -0.0020    -0.0010    20.6267    41.2556     1.2646    14.6405    14.6392     0.0013    13.0000    13.0180    12.775
     39     0.5450     0.5450     0.5450      9.414      2.000  37000.000     10.000    41.2537    34.5285   -27.6534     1.2730    -1.5670    -0.0020    -0.0010    20.6267    41.2556     1.2705    14.6405    14.6392     0.0013    13.0000    13.0150    12.784
     40     0.5475     0.5475     0.5475      9.436      2.000  37000.000     10.000    41.2537    34.4636   -27.7814     1.2730    -1.5670    -0.0020    -0.0010    20.6267    41.2556     1.2762    14.6405    14.6392     0.0013    13.0000    13.0150    12.758
     41     0.5500     0.5500     0.5500      9.338      2.000  37000.000     10.000    41.2537    34.3986   -27.9113     1.2730    -1.5670    -0.0020    -0.0010    20.6267    41.2556     1.2821    14.6405    14.6392     0.0013    13.0000    13.0170    12.784
# Sum of Counts = 27006
# Center of Mass = 0.499984+/-0.004303
# Full Width Half-Maximum = 0.011405+/-0.002075
# 11:09:49 AM  11/9/2003   scan completed.
