# scan = 306
# date = 11/11/2003
# time = 12:45:46 AM
# experiment = TbPtIn single crystal;  100 plane
# experiment_number = 41
# command = scan h 1.94 2.06 .005 k 1.94 2.06 .005 l 0 preset 4
# builtin_command = scan h 1.94 2.06 .005 k 1.94 2.06 .005 l 0 preset 4
# users = O.Garlea, C.Stassis, J.L.Zarestky
# local_contact = J.L.Zarestky
# scan_title = 220 field dependence: base Temp, H = 4.500000 T
# monochromator = PG002
# analyzer = Pg002
# sense = +-+
# collimation = 48-40-40-102
# samplename = TbPtIn
# sampletype = crystal
# samplemosaic = 30.000000
# latticeconstants = 7.554053,7.554053,3.846679,90.000000,90.000000,120.000000
# ubmatrix = -0.005362,-0.005623,0.259740,-0.129577,-0.134798,-0.010795,0.080912,-0.071857,-0.000073
# mode = 0
# plane_normal = 0.001702,0.034158,0.999415
# ubconf = C:\User\exp41\UBConf\UB10Nov2003_64050PM.ini
# preset_type = normal 
# preset_channel = mcu
# preset_value = 4.000000
# def_x = h
# def_y = detector
# col_headers = 
#   Pt.          h          k          l       time   detector    monitor        mcu         m2         s1         s2        sgl        sgu        stl        stu         a1         a2          q         ei         ef          e       temp    coldtip    tsample
      1     1.9398     1.9402    -0.0000      3.700      3.000  14800.000      4.000    41.2537    54.9970   -74.7578    -0.0965     1.9540     1.0050    -3.9990    20.6267    41.2566     3.2273    14.6405    14.6385     0.0020   295.0000     4.2150     4.324
      2     1.9448     1.9452     0.0000      3.719      1.000  14800.000      4.000    41.2537    54.8839   -74.9822    -0.0965     1.9540     1.0050    -3.9990    20.6267    41.2566     3.2355    14.6405    14.6385     0.0020   295.0000     4.2094     4.322
      3     1.9498     1.9502     0.0000      3.661      2.000  14800.000      4.000    41.2537    54.7707   -75.2095    -0.0965     1.9540     1.0050    -3.9990    20.6267    41.2566     3.2439    14.6405    14.6385     0.0020   295.0000     4.2094     4.322
      4     1.9548     1.9552    -0.0001      3.733      1.000  14800.000      4.000    41.2537    54.6594   -75.4349    -0.0965     1.9540     1.0050    -3.9990    20.6267    41.2566     3.2522    14.6405    14.6385     0.0020   295.0000     4.2176     4.327
      5     1.9598     1.9602    -0.0000      3.666      3.000  14800.000      4.000    41.2537    54.5443   -75.6633    -0.0965     1.9540     1.0050    -3.9990    20.6267    41.2566     3.2605    14.6405    14.6385     0.0020   295.0000     4.2153     4.327
      6     1.9648     1.9652     0.0000      3.759      2.000  14800.000      4.000    41.2537    54.4301   -75.8887    -0.0965     1.9540     1.0050    -3.9990    20.6267    41.2566     3.2688    14.6405    14.6385     0.0020   295.0000     4.2153     4.327
      7     1.9698     1.9703    -0.0001      3.658      1.000  14800.000      4.000    41.2537    54.3169   -76.1200    -0.0965     1.9540     1.0050    -3.9990    20.6267    41.2566     3.2772    14.6405    14.6385     0.0020   295.0000     4.2108     4.323
      8     1.9748     1.9752    -0.0000      3.763      9.000  14800.000      4.000    41.2537    54.2037   -76.3454    -0.0965     1.9540     1.0050    -3.9990    20.6267    41.2566     3.2855    14.6405    14.6385     0.0020   295.0000     4.2108     4.323
      9     1.9798     1.9802     0.0000      3.726     38.000  14800.000      4.000    41.2537    54.0886   -76.5727    -0.0965     1.9540     1.0050    -3.9990    20.6267    41.2566     3.2938    14.6405    14.6385     0.0020   295.0000     4.2055     4.325
     10     1.9848     1.9852    -0.0001      3.753    179.000  14800.000      4.000    41.2537    53.9764   -76.8020    -0.0965     1.9540     1.0050    -3.9990    20.6267    41.2566     3.3021    14.6405    14.6385     0.0020   295.0000     4.2055     4.325
     11     1.9898     1.9902    -0.0001      3.611    478.000  14800.000      4.000    41.2537    53.8632   -77.0304    -0.0965     1.9540     1.0050    -3.9990    20.6267    41.2566     3.3104    14.6405    14.6385     0.0020   295.0000     4.2103     4.330
     12     1.9948     1.9952    -0.0000      3.654    649.000  14800.000      4.000    41.2537    53.7461   -77.2607    -0.0965     1.9540     1.0050    -3.9990    20.6267    41.2566     3.3187    14.6405    14.6385     0.0020   295.0000     4.2129     4.314
     13     1.9998     2.0002     0.0000      3.729    699.000  14800.000      4.000    41.2537    53.6299   -77.4891    -0.0965     1.9540     1.0050    -3.9990    20.6267    41.2566     3.3270    14.6405    14.6385     0.0020   295.0000     4.2129     4.314
     14     2.0048     2.0052     0.0000      3.669    642.000  14800.000      4.000    41.2537    53.5138   -77.7213    -0.0965     1.9540     1.0050    -3.9990    20.6267    41.2566     3.3354    14.6405    14.6385     0.0020   295.0000     4.2112     4.326
     15     2.0098     2.0102     0.0000      3.667    467.000  14800.000      4.000    41.2537    53.3996   -77.9497    -0.0965     1.9540     1.0050    -3.9990    20.6267    41.2566     3.3437    14.6405    14.6385     0.0020   295.0000     4.2112     4.326
     16     2.0148     2.0152    -0.0000      3.739    279.000  14800.000      4.000    41.2537    53.2854   -78.1830    -0.0965     1.9540     1.0050    -3.9990    20.6267    41.2566     3.3521    14.6405    14.6385     0.0020   295.0000     4.2138     4.335
     17     2.0198     2.0202     0.0000      3.722    103.000  14800.000      4.000    41.2537    53.1693   -78.4123    -0.0965     1.9540     1.0050    -3.9990    20.6267    41.2566     3.3603    14.6405    14.6385     0.0020   295.0000     4.2101     4.322
     18     2.0248     2.0252    -0.0000      3.709     21.000  14800.000      4.000    41.2537    53.0531   -78.6456    -0.0965     1.9540     1.0050    -3.9990    20.6267    41.2566     3.3687    14.6405    14.6385     0.0020   295.0000     4.2101     4.322
     19     2.0298     2.0302    -0.0000      3.657      6.000  14800.000      4.000    41.2537    52.9390   -78.8749    -0.0965     1.9540     1.0050    -3.9990    20.6267    41.2566     3.3769    14.6405    14.6385     0.0020   295.0000     4.2082     4.329
     20     2.0348     2.0352    -0.0000      3.719      2.000  14800.000      4.000    41.2537    52.8228   -79.1082    -0.0965     1.9540     1.0050    -3.9990    20.6267    41.2566     3.3853    14.6405    14.6385     0.0020   295.0000     4.2082     4.329
     21     2.0398     2.0402    -0.0000      3.660      2.000  14800.000      4.000    41.2537    52.7047   -79.3424    -0.0965     1.9540     1.0050    -3.9990    20.6267    41.2566     3.3936    14.6405    14.6385     0.0020   295.0000     4.2134     4.325
     22     2.0448     2.0452     0.0000      3.692      1.000  14800.000      4.000    41.2537    52.5876   -79.5737    -0.0965     1.9540     1.0050    -3.9990    20.6267    41.2566     3.4019    14.6405    14.6385     0.0020   295.0000     4.2134     4.325
     23     2.0498     2.0502    -0.0000      3.645      1.000  14800.000      4.000    41.2537    52.4715   -79.8089    -0.0965     1.9540     1.0050    -3.9990    20.6267    41.2566     3.4103    14.6405    14.6385     0.0020   295.0000     4.2109     4.328
     24     2.0548     2.0552     0.0000      3.712      2.000  14800.000      4.000    41.2537    52.3543   -80.0412    -0.0965     1.9540     1.0050    -3.9990    20.6267    41.2566     3.4185    14.6405    14.6385     0.0020   295.0000     4.2136     4.329
     25     2.0598     2.0602     0.0000      3.717      2.000  14800.000      4.000    41.2537    52.2372   -80.2765    -0.0965     1.9540     1.0050    -3.9990    20.6267    41.2566     3.4269    14.6405    14.6385     0.0020   295.0000     4.2136     4.329
# Sum of Counts = 3593
# Center of Mass = 2.000638+/-0.047202
# Full Width Half-Maximum = 0.020027+/-0.025660
# 12:48:44 AM  11/11/2003   scan completed.
