# scan = 191
# date = 11/10/2003
# time = 3:02:35 AM
# experiment = TbPtIn single crystal;  100 plane
# experiment_number = 41
# command = scan h 0 k 0 l 1.94 2.06 .005 preset 2
# builtin_command = scan h 0 k 0 l 1.94 2.06 .005 preset 2
# users = O.Garlea, C.Stassis, J.L.Zarestky
# local_contact = J.L.Zarestky
# scan_title = 002 order parameter DN T = 19.0000
# monochromator = PG002
# analyzer = Pg002
# sense = +-+
# collimation = 48-40-40-102
# samplename = TbPtIn
# sampletype = crystal
# samplemosaic = 30.000000
# latticeconstants = 7.554017,7.554017,3.847681,90.000000,90.000000,120.000000
# ubmatrix = -0.008230,-0.004834,0.259516,-0.134256,-0.130074,-0.012979,0.072618,-0.080146,0.005414
# mode = 0
# plane_normal = -0.022217,-0.027363,0.999379
# ubconf = C:\User\exp41\UBConf\UB08Nov2003_100555PM.ini
# preset_type = normal 
# preset_channel = mcu
# preset_value = 2.000000
# def_x = l
# def_y = detector
# col_headers = 
#   Pt.          h          k          l       time   detector    monitor        mcu         m2         s1         s2        sgl        sgu        stl        stu         a1         a2          q         ei         ef          e       temp    coldtip    tsample
      1     0.0000     0.0000     1.9400      1.896      1.000   7400.000      2.000    41.2537   -33.7520   -73.1593     1.2730    -1.5670    -0.0020    -0.0010    20.6267    41.2556     3.1681    14.6405    14.6392     0.0013    19.0000    19.0090    18.923
      2     0.0001     0.0001     1.9450      1.867      0.000   7400.000      2.000    41.2537   -33.8593   -73.3759     1.2730    -1.5670    -0.0020    -0.0010    20.6267    41.2556     3.1761    14.6405    14.6392     0.0013    19.0000    19.0090    18.923
      3     0.0000     0.0000     1.9500      1.865      0.000   7400.000      2.000    41.2537   -33.9705   -73.5954     1.2730    -1.5670    -0.0020    -0.0010    20.6267    41.2556     3.1843    14.6405    14.6392     0.0013    19.0000    19.0110    18.950
      4     0.0000     0.0000     1.9550      1.888      1.000   7400.000      2.000    41.2537   -34.0797   -73.8158     1.2730    -1.5670    -0.0020    -0.0010    20.6267    41.2556     3.1925    14.6405    14.6392     0.0013    19.0000    19.0110    18.950
      5     0.0000     0.0000     1.9600      1.846      1.000   7400.000      2.000    41.2537   -34.1909   -74.0363     1.2730    -1.5670    -0.0020    -0.0010    20.6267    41.2556     3.2006    14.6405    14.6392     0.0013    19.0000    19.0130    18.988
      6     0.0000     0.0000     1.9650      1.864      1.000   7400.000      2.000    41.2537   -34.3012   -74.2568     1.2730    -1.5670    -0.0020    -0.0010    20.6267    41.2556     3.2088    14.6405    14.6392     0.0013    19.0000    19.0130    18.988
      7    -0.0001    -0.0001     1.9700      1.841      3.000   7400.000      2.000    41.2537   -34.4134   -74.4772     1.2730    -1.5670    -0.0020    -0.0010    20.6267    41.2556     3.2169    14.6405    14.6392     0.0013    19.0000    19.0130    18.988
      8     0.0001     0.0001     1.9750      1.888     26.000   7400.000      2.000    41.2537   -34.5217   -74.7007     1.2730    -1.5670    -0.0020    -0.0010    20.6267    41.2556     3.2252    14.6405    14.6392     0.0013    19.0000    19.0090    18.979
      9    -0.0000    -0.0000     1.9800      1.856    155.000   7400.000      2.000    41.2537   -34.6339   -74.9192     1.2730    -1.5670    -0.0020    -0.0010    20.6267    41.2556     3.2332    14.6405    14.6392     0.0013    19.0000    19.0090    18.979
     10     0.0000     0.0000     1.9850      1.878    579.000   7400.000      2.000    41.2537   -34.7441   -75.1426     1.2730    -1.5670    -0.0020    -0.0010    20.6267    41.2556     3.2415    14.6405    14.6392     0.0013    19.0000    19.0090    18.979
     11     0.0000     0.0000     1.9900      1.875   1078.000   7400.000      2.000    41.2537   -34.8543   -75.3650     1.2730    -1.5670    -0.0020    -0.0010    20.6267    41.2556     3.2496    14.6405    14.6392     0.0013    19.0000    19.0070    18.953
     12     0.0000     0.0000     1.9950      1.889   1270.000   7400.000      2.000    41.2537   -34.9656   -75.5865     1.2730    -1.5670    -0.0020    -0.0010    20.6267    41.2556     3.2578    14.6405    14.6392     0.0013    19.0000    19.0070    18.953
     13    -0.0000    -0.0000     2.0000      1.868   1363.000   7400.000      2.000    41.2537   -35.0787   -75.8099     1.2730    -1.5670    -0.0020    -0.0010    20.6267    41.2556     3.2659    14.6405    14.6392     0.0013    19.0000    19.0170    18.987
     14     0.0000     0.0000     2.0050      1.847   1279.000   7400.000      2.000    41.2537   -35.1900   -76.0343     1.2730    -1.5670    -0.0020    -0.0010    20.6267    41.2556     3.2741    14.6405    14.6392     0.0013    19.0000    19.0170    18.987
     15     0.0001     0.0001     2.0101      1.839    983.000   7400.000      2.000    41.2537   -35.3012   -76.2597     1.2730    -1.5670    -0.0020    -0.0010    20.6267    41.2556     3.2824    14.6405    14.6392     0.0013    19.0000    19.0170    18.987
     16    -0.0001    -0.0001     2.0150      1.890    520.000   7400.000      2.000    41.2537   -35.4144   -76.4802     1.2730    -1.5670    -0.0020    -0.0010    20.6267    41.2556     3.2904    14.6405    14.6392     0.0013    19.0000    19.0100    18.953
     17     0.0001     0.0001     2.0200      1.881    129.000   7400.000      2.000    41.2537   -35.5236   -76.7056     1.2730    -1.5670    -0.0020    -0.0010    20.6267    41.2556     3.2986    14.6405    14.6392     0.0013    19.0000    19.0100    18.953
     18    -0.0000    -0.0000     2.0250      1.875     18.000   7400.000      2.000    41.2537   -35.6378   -76.9290     1.2730    -1.5670    -0.0020    -0.0010    20.6267    41.2556     3.3067    14.6405    14.6392     0.0013    19.0000    19.0140    18.964
     19     0.0000     0.0000     2.0300      1.861      3.000   7400.000      2.000    41.2537   -35.7500   -77.1544     1.2730    -1.5670    -0.0020    -0.0010    20.6267    41.2556     3.3149    14.6405    14.6392     0.0013    19.0000    19.0140    18.964
     20     0.0000     0.0000     2.0350      1.839      0.000   7400.000      2.000    41.2537   -35.8612   -77.3798     1.2730    -1.5670    -0.0020    -0.0010    20.6267    41.2556     3.3231    14.6405    14.6392     0.0013    19.0000    19.0140    18.964
     21     0.0000     0.0000     2.0400      1.868      1.000   7400.000      2.000    41.2537   -35.9744   -77.6052     1.2730    -1.5670    -0.0020    -0.0010    20.6267    41.2556     3.3313    14.6405    14.6392     0.0013    19.0000    19.0150    18.954
     22     0.0000     0.0000     2.0450      1.831      0.000   7400.000      2.000    41.2537   -36.0886   -77.8326     1.2730    -1.5670    -0.0020    -0.0010    20.6267    41.2556     3.3395    14.6405    14.6392     0.0013    19.0000    19.0150    18.954
     23     0.0000     0.0000     2.0500      1.844      1.000   7400.000      2.000    41.2537   -36.2018   -78.0580     1.2730    -1.5670    -0.0020    -0.0010    20.6267    41.2556     3.3476    14.6405    14.6392     0.0013    19.0000    19.0150    18.954
     24     0.0000     0.0000     2.0550      1.865      0.000   7400.000      2.000    41.2537   -36.3150   -78.2843     1.2730    -1.5670    -0.0020    -0.0010    20.6267    41.2556     3.3557    14.6405    14.6392     0.0013    19.0000    19.0120    18.964
     25    -0.0000    -0.0000     2.0600      1.829      1.000   7400.000      2.000    41.2537   -36.4301   -78.5137     1.2730    -1.5670    -0.0020    -0.0010    20.6267    41.2556     3.3640    14.6405    14.6392     0.0013    19.0000    19.0120    18.964
# Sum of Counts = 7413
# Center of Mass = 1.999671+/-0.032846
# Full Width Half-Maximum = 0.019168+/-0.019575
# 3:04:31 AM  11/10/2003   scan completed.
