# scan = 39
# date = 11/9/2003
# time = 2:55:25 AM
# experiment = TbPtIn single crystal;  100 plane
# experiment_number = 41
# command = scan h -.3 .8 .005 k -.3 .8 .005 l 1.7 2.8 .005 preset mcu 6
# builtin_command = scan h -.3 .8 .005 k -.3 .8 .005 l 1.7 2.8 .005 preset mcu 6
# users = O.Garlea, C.Stassis, J.L.Zarestky
# local_contact = J.L.Zarestky
# scan_title = h,h,h+2 scan
# monochromator = PG002
# analyzer = Pg002
# sense = +-+
# collimation = 48-40-40-102
# samplename = TbPtIn
# sampletype = crystal
# samplemosaic = 30.000000
# latticeconstants = 7.554017,7.554017,3.847681,90.000000,90.000000,120.000000
# ubmatrix = -0.008230,-0.004834,0.259516,-0.134256,-0.130074,-0.012979,0.072618,-0.080146,0.005414
# mode = 0
# plane_normal = -0.022217,-0.027363,0.999379
# ubconf = C:\User\exp41\UBConf\UB08Nov2003_100555PM.ini
# preset_type = normal 
# preset_channel = mcu
# preset_value = 6.000000
# def_x = h
# def_y = detector
# col_headers = 
#   Pt.          h          k          l       time   detector    monitor        mcu         m2         s1         s2        sgl        sgu        stl        stu         a1         a2          q         ei         ef          e       temp    coldtip    tsample
      1    -0.3000    -0.2999     1.7001      5.636      1.000  22200.000      6.000    41.2537   -39.4075   -64.0904     1.2730    -1.5670    -0.0020    -0.0010    20.6267    41.2556     2.8206    14.6405    14.6392     0.0013   295.0000     9.8248     9.597
      2    -0.2948    -0.2948     1.7050      5.699      1.000  22200.000      6.000    41.2537   -39.2904   -64.2558     1.2730    -1.5670    -0.0020    -0.0010    20.6267    41.2556     2.8271    14.6405    14.6392     0.0013   295.0000     9.8248     9.597
      3    -0.2900    -0.2900     1.7100      5.668      0.000  22200.000      6.000    41.2537   -39.1870   -64.4241     1.2730    -1.5670    -0.0020    -0.0010    20.6267    41.2556     2.8337    14.6405    14.6392     0.0013   295.0000     9.8599     9.573
      4    -0.2849    -0.2849     1.7150      5.622      0.000  22200.000      6.000    41.2537   -39.0758   -64.5944     1.2730    -1.5670    -0.0020    -0.0010    20.6267    41.2556     2.8404    14.6405    14.6392     0.0013   295.0000     9.8236     9.577
      5    -0.2799    -0.2798     1.7200      5.654      2.000  22200.000      6.000    41.2537   -38.9665   -64.7646     1.2730    -1.5670    -0.0020    -0.0010    20.6267    41.2556     2.8471    14.6405    14.6392     0.0013   295.0000     9.8635     9.602
      6    -0.2750    -0.2750     1.7250      5.586      1.000  22200.000      6.000    41.2537   -38.8652   -64.9339     1.2730    -1.5670    -0.0020    -0.0010    20.6267    41.2556     2.8537    14.6405    14.6392     0.0013   295.0000     9.8635     9.602
      7    -0.2700    -0.2700     1.7300      5.636      0.000  22200.000      6.000    41.2537   -38.7608   -65.1082     1.2730    -1.5670    -0.0020    -0.0010    20.6267    41.2556     2.8605    14.6405    14.6392     0.0013   295.0000     9.8234     9.574
      8    -0.2650    -0.2650     1.7350      5.634      0.000  22200.000      6.000    41.2537   -38.6575   -65.2824     1.2730    -1.5670    -0.0020    -0.0010    20.6267    41.2556     2.8674    14.6405    14.6392     0.0013   295.0000     9.8591     9.591
      9    -0.2601    -0.2600     1.7400      5.688      0.000  22200.000      6.000    41.2537   -38.5571   -65.4546     1.2730    -1.5670    -0.0020    -0.0010    20.6267    41.2556     2.8741    14.6405    14.6392     0.0013   295.0000     9.8290     9.593
     10    -0.2550    -0.2550     1.7451      5.573      0.000  22200.000      6.000    41.2537   -38.4557   -65.6328     1.2730    -1.5670    -0.0020    -0.0010    20.6267    41.2556     2.8810    14.6405    14.6392     0.0013   295.0000     9.8290     9.593
     11    -0.2500    -0.2500     1.7500      5.635      2.000  22200.000      6.000    41.2537   -38.3573   -65.8060     1.2730    -1.5670    -0.0020    -0.0010    20.6267    41.2556     2.8878    14.6405    14.6392     0.0013   295.0000     9.8621     9.620
     12    -0.2450    -0.2450     1.7550      5.586      0.000  22200.000      6.000    41.2537   -38.2598   -65.9832     1.2730    -1.5670    -0.0020    -0.0010    20.6267    41.2556     2.8947    14.6405    14.6392     0.0013   295.0000     9.8237     9.532
     13    -0.2400    -0.2400     1.7600      5.632      0.000  22200.000      6.000    41.2537   -38.1624   -66.1633     1.2730    -1.5670    -0.0020    -0.0010    20.6267    41.2556     2.9017    14.6405    14.6392     0.0013   295.0000     9.8532     9.570
     14    -0.2348    -0.2348     1.7650      5.649      0.000  22200.000      6.000    41.2537   -38.0610   -66.3414     1.2730    -1.5670    -0.0020    -0.0010    20.6267    41.2556     2.9086    14.6405    14.6392     0.0013   295.0000     9.8543     9.588
     15    -0.2300    -0.2300     1.7700      5.588      0.000  22200.000      6.000    41.2537   -37.9754   -66.5206     1.2730    -1.5670    -0.0020    -0.0010    20.6267    41.2556     2.9156    14.6405    14.6392     0.0013   295.0000     9.8543     9.588
     16    -0.2250    -0.2250     1.7750      5.593      0.000  22200.000      6.000    41.2537   -37.8819   -66.7036     1.2730    -1.5670    -0.0020    -0.0010    20.6267    41.2556     2.9227    14.6405    14.6392     0.0013   295.0000     9.8561     9.571
     17    -0.2200    -0.2200     1.7800      5.630      0.000  22200.000      6.000    41.2537   -37.7913   -66.8828     1.2730    -1.5670    -0.0020    -0.0010    20.6267    41.2556     2.9296    14.6405    14.6392     0.0013   295.0000     9.8268     9.586
     18    -0.2150    -0.2150     1.7850      5.599      0.000  22200.000      6.000    41.2537   -37.7018   -67.0668     1.2730    -1.5670    -0.0020    -0.0010    20.6267    41.2556     2.9367    14.6405    14.6392     0.0013   295.0000     9.8512     9.540
     19    -0.2100    -0.2100     1.7900      5.623      1.000  22200.000      6.000    41.2537   -37.6142   -67.2528     1.2730    -1.5670    -0.0020    -0.0010    20.6267    41.2556     2.9439    14.6405    14.6392     0.0013   295.0000     9.8512     9.540
     20    -0.2050    -0.2050     1.7950      5.658      0.000  22200.000      6.000    41.2537   -37.5266   -67.4349     1.2730    -1.5670    -0.0020    -0.0010    20.6267    41.2556     2.9509    14.6405    14.6392     0.0013   295.0000     9.8250     9.548
     21    -0.2000    -0.2000     1.8000      5.659      1.000  22200.000      6.000    41.2537   -37.4409   -67.6219     1.2730    -1.5670    -0.0020    -0.0010    20.6267    41.2556     2.9581    14.6405    14.6392     0.0013   295.0000     9.8610     9.577
     22    -0.1951    -0.1951     1.8050      5.589      0.000  22200.000      6.000    41.2537   -37.3593   -67.8070     1.2730    -1.5670    -0.0020    -0.0010    20.6267    41.2556     2.9653    14.6405    14.6392     0.0013   295.0000     9.8201     9.588
     23    -0.1900    -0.1900     1.8100      5.668      2.000  22200.000      6.000    41.2537   -37.2746   -67.9959     1.2730    -1.5670    -0.0020    -0.0010    20.6267    41.2556     2.9725    14.6405    14.6392     0.0013   295.0000     9.8613     9.607
     24    -0.1850    -0.1850     1.8150      5.599      1.000  22200.000      6.000    41.2537   -37.1939   -68.1839     1.2730    -1.5670    -0.0020    -0.0010    20.6267    41.2556     2.9798    14.6405    14.6392     0.0013   295.0000     9.8613     9.607
     25    -0.1800    -0.1800     1.8200      5.621      0.000  22200.000      6.000    41.2537   -37.1132   -68.3739     1.2730    -1.5670    -0.0020    -0.0010    20.6267    41.2556     2.9871    14.6405    14.6392     0.0013   295.0000     9.8582     9.573
     26    -0.1750    -0.1750     1.8251      5.628      0.000  22200.000      6.000    41.2537   -37.0354   -68.5678     1.2730    -1.5670    -0.0020    -0.0010    20.6267    41.2556     2.9945    14.6405    14.6392     0.0013   295.0000     9.8606     9.578
     27    -0.1700    -0.1700     1.8301      5.612      0.000  22200.000      6.000    41.2537   -36.9567   -68.7578     1.2730    -1.5670    -0.0020    -0.0010    20.6267    41.2556     3.0018    14.6405    14.6392     0.0013   295.0000     9.8122     9.532
     28    -0.1650    -0.1650     1.8350      5.682      1.000  22200.000      6.000    41.2537   -36.8809   -68.9467     1.2730    -1.5670    -0.0020    -0.0010    20.6267    41.2556     3.0090    14.6405    14.6392     0.0013   295.0000     9.8122     9.532
     29    -0.1600    -0.1600     1.8400      5.577      0.000  22200.000      6.000    41.2537   -36.8051   -69.1416     1.2730    -1.5670    -0.0020    -0.0010    20.6267    41.2556     3.0165    14.6405    14.6392     0.0013   295.0000     9.8590     9.605
     30    -0.1550    -0.1550     1.8450      5.581      0.000  22200.000      6.000    41.2537   -36.7333   -69.3355     1.2730    -1.5670    -0.0020    -0.0010    20.6267    41.2556     3.0239    14.6405    14.6392     0.0013   295.0000     9.8519     9.587
     31    -0.1501    -0.1501     1.8500      5.624      0.000  22200.000      6.000    41.2537   -36.6614   -69.5294     1.2730    -1.5670    -0.0020    -0.0010    20.6267    41.2556     3.0313    14.6405    14.6392     0.0013   295.0000     9.8548     9.564
     32    -0.1450    -0.1450     1.8550      5.631      0.000  22200.000      6.000    41.2537   -36.5886   -69.7272     1.2730    -1.5670    -0.0020    -0.0010    20.6267    41.2556     3.0388    14.6405    14.6392     0.0013   295.0000     9.8111     9.599
     33    -0.1400    -0.1400     1.8600      5.551      0.000  22200.000      6.000    41.2537   -36.5187   -69.9221     1.2730    -1.5670    -0.0020    -0.0010    20.6267    41.2556     3.0462    14.6405    14.6392     0.0013   295.0000     9.8111     9.599
     34    -0.1350    -0.1350     1.8650      5.672      2.000  22200.000      6.000    41.2537   -36.4518   -70.1209     1.2730    -1.5670    -0.0020    -0.0010    20.6267    41.2556     3.0538    14.6405    14.6392     0.0013   295.0000     9.8548     9.588
     35    -0.1300    -0.1300     1.8700      5.578      1.000  22200.000      6.000    41.2537   -36.3839   -70.3217     1.2730    -1.5670    -0.0020    -0.0010    20.6267    41.2556     3.0614    14.6405    14.6392     0.0013   295.0000     9.8094     9.527
     36    -0.1250    -0.1250     1.8750      5.637      0.000  22200.000      6.000    41.2537   -36.3189   -70.5186     1.2730    -1.5670    -0.0020    -0.0010    20.6267    41.2556     3.0688    14.6405    14.6392     0.0013   295.0000     9.8576     9.602
     37    -0.1201    -0.1200     1.8800      5.655      0.000  22200.000      6.000    41.2537   -36.2549   -70.7204     1.2730    -1.5670    -0.0020    -0.0010    20.6267    41.2556     3.0765    14.6405    14.6392     0.0013   295.0000     9.8576     9.602
     38    -0.1151    -0.1150     1.8850      5.592      0.000  22200.000      6.000    41.2537   -36.1909   -70.9202     1.2730    -1.5670    -0.0020    -0.0010    20.6267    41.2556     3.0840    14.6405    14.6392     0.0013   295.0000     9.8596     9.585
     39    -0.1100    -0.1100     1.8900      5.596      1.000  22200.000      6.000    41.2537   -36.1270   -71.1239     1.2730    -1.5670    -0.0020    -0.0010    20.6267    41.2556     3.0917    14.6405    14.6392     0.0013   295.0000     9.8085     9.576
     40    -0.1050    -0.1050     1.8950      5.644      4.000  22200.000      6.000    41.2537   -36.0669   -71.3276     1.2730    -1.5670    -0.0020    -0.0010    20.6267    41.2556     3.0994    14.6405    14.6392     0.0013   295.0000     9.8577     9.573
     41    -0.1000    -0.1000     1.9000      5.632      2.000  22200.000      6.000    41.2537   -36.0069   -71.5314     1.2730    -1.5670    -0.0020    -0.0010    20.6267    41.2556     3.1071    14.6405    14.6392     0.0013   295.0000     9.8577     9.573
     42    -0.0950    -0.0950     1.9050      5.474      2.000  22200.000      6.000    41.2537   -35.9498   -71.7381     1.2730    -1.5670    -0.0020    -0.0010    20.6267    41.2556     3.1149    14.6405    14.6392     0.0013   295.0000     9.8621     9.633
     43    -0.0900    -0.0900     1.9100      5.659      3.000  22200.000      6.000    41.2537   -35.8927   -71.9418     1.2730    -1.5670    -0.0020    -0.0010    20.6267    41.2556     3.1225    14.6405    14.6392     0.0013   295.0000     9.8087     9.521
     44    -0.0850    -0.0850     1.9150      5.607      2.000  22200.000      6.000    41.2537   -35.8366   -72.1515     1.2730    -1.5670    -0.0020    -0.0010    20.6267    41.2556     3.1304    14.6405    14.6392     0.0013   295.0000     9.8557     9.582
     45    -0.0800    -0.0800     1.9200      5.624      1.000  22200.000      6.000    41.2537   -35.7815   -72.3582     1.2730    -1.5670    -0.0020    -0.0010    20.6267    41.2556     3.1381    14.6405    14.6392     0.0013   295.0000     9.8148     9.595
     46    -0.0750    -0.0750     1.9250      5.616      1.000  22200.000      6.000    41.2537   -35.7303   -72.5668     1.2730    -1.5670    -0.0020    -0.0010    20.6267    41.2556     3.1459    14.6405    14.6392     0.0013   295.0000     9.8148     9.595
     47    -0.0700    -0.0700     1.9300      5.618      1.000  22200.000      6.000    41.2537   -35.6772   -72.7774     1.2730    -1.5670    -0.0020    -0.0010    20.6267    41.2556     3.1538    14.6405    14.6392     0.0013   295.0000     9.8553     9.577
     48    -0.0650    -0.0650     1.9350      5.637      2.000  22200.000      6.000    41.2537   -35.6260   -72.9871     1.2730    -1.5670    -0.0020    -0.0010    20.6267    41.2556     3.1616    14.6405    14.6392     0.0013   295.0000     9.8579     9.588
     49    -0.0600    -0.0600     1.9400      5.570      1.000  22200.000      6.000    41.2537   -35.5778   -73.2007     1.2730    -1.5670    -0.0020    -0.0010    20.6267    41.2556     3.1696    14.6405    14.6392     0.0013   295.0000     9.8615     9.599
     50    -0.0550    -0.0550     1.9450      5.606      1.000  22200.000      6.000    41.2537   -35.5276   -73.4113     1.2730    -1.5670    -0.0020    -0.0010    20.6267    41.2556     3.1774    14.6405    14.6392     0.0013   295.0000     9.8615     9.599
     51    -0.0500    -0.0500     1.9500      5.626      1.000  22200.000      6.000    41.2537   -35.4823   -73.6249     1.2730    -1.5670    -0.0020    -0.0010    20.6267    41.2556     3.1854    14.6405    14.6392     0.0013   295.0000     9.8259     9.544
     52    -0.0450    -0.0450     1.9550      5.609      0.000  22200.000      6.000    41.2537   -35.4370   -73.8395     1.2730    -1.5670    -0.0020    -0.0010    20.6267    41.2556     3.1933    14.6405    14.6392     0.0013   295.0000     9.8666     9.582
     53    -0.0400    -0.0400     1.9600      5.617      1.000  22200.000      6.000    41.2537   -35.3907   -74.0550     1.2730    -1.5670    -0.0020    -0.0010    20.6267    41.2556     3.2013    14.6405    14.6392     0.0013   295.0000     9.8636     9.575
     54    -0.0350    -0.0350     1.9650      5.639      1.000  22200.000      6.000    41.2537   -35.3484   -74.2715     1.2730    -1.5670    -0.0020    -0.0010    20.6267    41.2556     3.2093    14.6405    14.6392     0.0013   295.0000     9.8636     9.575
     55    -0.0300    -0.0300     1.9700      5.590      0.000  22200.000      6.000    41.2537   -35.3061   -74.4881     1.2730    -1.5670    -0.0020    -0.0010    20.6267    41.2556     3.2173    14.6405    14.6392     0.0013   295.0000     9.8631     9.605
     56    -0.0250    -0.0250     1.9750      5.669      3.000  22200.000      6.000    41.2537   -35.2657   -74.7076     1.2730    -1.5670    -0.0020    -0.0010    20.6267    41.2556     3.2254    14.6405    14.6392     0.0013   295.0000     9.8609     9.586
     57    -0.0201    -0.0201     1.9800      5.647     10.000  22200.000      6.000    41.2537   -35.2264   -74.9241     1.2730    -1.5670    -0.0020    -0.0010    20.6267    41.2556     3.2334    14.6405    14.6392     0.0013   295.0000     9.8617     9.598
     58    -0.0150    -0.0150     1.9850      5.638     91.000  22200.000      6.000    41.2537   -35.1870   -75.1456     1.2730    -1.5670    -0.0020    -0.0010    20.6267    41.2556     3.2416    14.6405    14.6392     0.0013   295.0000     9.7945     9.553
     59    -0.0100    -0.0100     1.9900      5.638    747.000  22200.000      6.000    41.2537   -35.1486   -75.3660     1.2730    -1.5670    -0.0020    -0.0010    20.6267    41.2556     3.2497    14.6405    14.6392     0.0013   295.0000     9.7945     9.553
     60    -0.0050    -0.0050     1.9950      5.627   2974.000  22200.000      6.000    41.2537   -35.1132   -75.5875     1.2730    -1.5670    -0.0020    -0.0010    20.6267    41.2556     3.2578    14.6405    14.6392     0.0013   295.0000     9.8627     9.567
     61    -0.0000    -0.0000     2.0000      5.622   4345.000  22200.000      6.000    41.2537   -35.0787   -75.8099     1.2730    -1.5670    -0.0020    -0.0010    20.6267    41.2556     3.2659    14.6405    14.6392     0.0013   295.0000     9.8548     9.577
     62     0.0050     0.0050     2.0050      5.635   2759.000  22200.000      6.000    41.2537   -35.0443   -76.0343     1.2730    -1.5670    -0.0020    -0.0010    20.6267    41.2556     3.2741    14.6405    14.6392     0.0013   295.0000     9.8532     9.591
     63     0.0100     0.0100     2.0101      5.691    836.000  22200.000      6.000    41.2537   -35.0118   -76.2607     1.2730    -1.5670    -0.0020    -0.0010    20.6267    41.2556     3.2824    14.6405    14.6392     0.0013   295.0000     9.8532     9.591
     64     0.0150     0.0150     2.0150      5.621    130.000  22200.000      6.000    41.2537   -34.9803   -76.4822     1.2730    -1.5670    -0.0020    -0.0010    20.6267    41.2556     3.2905    14.6405    14.6392     0.0013   295.0000     9.8582     9.644
     65     0.0200     0.0200     2.0200      5.549     17.000  22200.000      6.000    41.2537   -34.9488   -76.7105     1.2730    -1.5670    -0.0020    -0.0010    20.6267    41.2556     3.2988    14.6405    14.6392     0.0013   295.0000     9.8503     9.546
     66     0.0250     0.0250     2.0250      5.657      4.000  22200.000      6.000    41.2537   -34.9213   -76.9369     1.2730    -1.5670    -0.0020    -0.0010    20.6267    41.2556     3.3070    14.6405    14.6392     0.0013   295.0000     9.8476     9.594
     67     0.0300     0.0300     2.0300      5.583      0.000  22200.000      6.000    41.2537   -34.8937   -77.1643     1.2730    -1.5670    -0.0020    -0.0010    20.6267    41.2556     3.3153    14.6405    14.6392     0.0013   295.0000     9.8376     9.556
     68     0.0350     0.0350     2.0350      5.605      1.000  22200.000      6.000    41.2537   -34.8661   -77.3936     1.2730    -1.5670    -0.0020    -0.0010    20.6267    41.2556     3.3236    14.6405    14.6392     0.0013   295.0000     9.8376     9.556
     69     0.0400     0.0400     2.0400      5.606      1.000  22200.000      6.000    41.2537   -34.8406   -77.6239     1.2730    -1.5670    -0.0020    -0.0010    20.6267    41.2556     3.3319    14.6405    14.6392     0.0013   295.0000     9.8277     9.598
     70     0.0450     0.0450     2.0450      5.642      0.000  22200.000      6.000    41.2537   -34.8169   -77.8552     1.2730    -1.5670    -0.0020    -0.0010    20.6267    41.2556     3.3403    14.6405    14.6392     0.0013   295.0000     9.8276     9.579
     71     0.0500     0.0500     2.0500      5.581      1.000  22200.000      6.000    41.2537   -34.7933   -78.0865     1.2730    -1.5670    -0.0020    -0.0010    20.6267    41.2556     3.3486    14.6405    14.6392     0.0013   295.0000     9.8200     9.587
     72     0.0550     0.0550     2.0550      5.612      2.000  22200.000      6.000    41.2537   -34.7707   -78.3208     1.2730    -1.5670    -0.0020    -0.0010    20.6267    41.2556     3.3571    14.6405    14.6392     0.0013   295.0000     9.8200     9.587
     73     0.0600     0.0600     2.0600      5.624      0.000  22200.000      6.000    41.2537   -34.7490   -78.5540     1.2730    -1.5670    -0.0020    -0.0010    20.6267    41.2556     3.3654    14.6405    14.6392     0.0013   295.0000     9.8112     9.510
     74     0.0650     0.0650     2.0650      5.640      1.000  22200.000      6.000    41.2537   -34.7303   -78.7883     1.2730    -1.5670    -0.0020    -0.0010    20.6267    41.2556     3.3738    14.6405    14.6392     0.0013   295.0000     9.8605     9.579
     75     0.0700     0.0700     2.0700      5.579      2.000  22200.000      6.000    41.2537   -34.7116   -79.0215     1.2730    -1.5670    -0.0020    -0.0010    20.6267    41.2556     3.3822    14.6405    14.6392     0.0013   295.0000     9.8047     9.553
     76     0.0750     0.0750     2.0750      5.644      2.000  22200.000      6.000    41.2537   -34.6939   -79.2617     1.2730    -1.5670    -0.0020    -0.0010    20.6267    41.2556     3.3908    14.6405    14.6392     0.0013   295.0000     9.8047     9.553
     77     0.0800     0.0800     2.0800      5.678      0.000  22200.000      6.000    41.2537   -34.6781   -79.4959     1.2730    -1.5670    -0.0020    -0.0010    20.6267    41.2556     3.3992    14.6405    14.6392     0.0013   295.0000     9.8048     9.576
     78     0.0850     0.0850     2.0850      5.668      1.000  22200.000      6.000    41.2537   -34.6624   -79.7371     1.2730    -1.5670    -0.0020    -0.0010    20.6267    41.2556     3.4077    14.6405    14.6392     0.0013   295.0000     9.7983     9.513
     79     0.0900     0.0900     2.0900      5.557      1.000  22200.000      6.000    41.2537   -34.6476   -79.9733     1.2730    -1.5670    -0.0020    -0.0010    20.6267    41.2556     3.4161    14.6405    14.6392     0.0013   295.0000     9.8522     9.567
     80     0.0950     0.0950     2.0950      5.659      0.000  22200.000      6.000    41.2537   -34.6358   -80.2154     1.2730    -1.5670    -0.0020    -0.0010    20.6267    41.2556     3.4247    14.6405    14.6392     0.0013   295.0000     9.7945     9.521
     81     0.1000     0.1000     2.1000      5.642      1.000  22200.000      6.000    41.2537   -34.6230   -80.4556     1.2730    -1.5670    -0.0020    -0.0010    20.6267    41.2556     3.4333    14.6405    14.6392     0.0013   295.0000     9.7945     9.521
     82     0.1051     0.1050     2.1050      5.654      0.000  22200.000      6.000    41.2537   -34.6122   -80.6997     1.2730    -1.5670    -0.0020    -0.0010    20.6267    41.2556     3.4419    14.6405    14.6392     0.0013   295.0000     9.7894     9.572
     83     0.1100     0.1100     2.1100      5.599      2.000  22200.000      6.000    41.2537   -34.6024   -80.9408     1.2730    -1.5670    -0.0020    -0.0010    20.6267    41.2556     3.4504    14.6405    14.6392     0.0013   295.0000     9.7869     9.485
     84     0.1150     0.1150     2.1150      5.622      0.000  22200.000      6.000    41.2537   -34.5955   -81.1869     1.2730    -1.5670    -0.0020    -0.0010    20.6267    41.2556     3.4591    14.6405    14.6392     0.0013   295.0000     9.8503     9.570
     85     0.1200     0.1200     2.1200      5.656      0.000  22200.000      6.000    41.2537   -34.5876   -81.4300     1.2730    -1.5670    -0.0020    -0.0010    20.6267    41.2556     3.4676    14.6405    14.6392     0.0013   295.0000     9.8503     9.570
     86     0.1248     0.1248     2.1250      5.649      1.000  22200.000      6.000    41.2537   -34.5876   -81.6780     1.2730    -1.5670    -0.0020    -0.0010    20.6267    41.2556     3.4764    14.6405    14.6392     0.0013   295.0000     9.7863     9.547
     87     0.1300     0.1300     2.1300      5.618      0.000  22200.000      6.000    41.2537   -34.5768   -81.9221     1.2730    -1.5670    -0.0020    -0.0010    20.6267    41.2556     3.4849    14.6405    14.6392     0.0013   295.0000     9.7845     9.557
     88     0.1349     0.1348     2.1350      5.605      0.000  22200.000      6.000    41.2537   -34.5768   -82.1711     1.2730    -1.5670    -0.0020    -0.0010    20.6267    41.2556     3.4936    14.6405    14.6392     0.0013   295.0000     9.7879     9.496
     89     0.1397     0.1397     2.1400      5.601      1.000  22200.000      6.000    41.2537   -34.5768   -82.4192     1.2730    -1.5670    -0.0020    -0.0010    20.6267    41.2556     3.5023    14.6405    14.6392     0.0013   295.0000     9.7879     9.496
     90     0.1451     0.1450     2.1450      5.632      0.000  22200.000      6.000    41.2537   -34.5669   -82.6702     1.2730    -1.5670    -0.0020    -0.0010    20.6267    41.2556     3.5111    14.6405    14.6392     0.0013   295.0000     9.8431     9.536
     91     0.1500     0.1500     2.1500      5.644      0.000  22200.000      6.000    41.2537   -34.5679   -82.9202     1.2730    -1.5670    -0.0020    -0.0010    20.6267    41.2556     3.5198    14.6405    14.6392     0.0013   295.0000     9.7824     9.481
     92     0.1550     0.1550     2.1550      5.657      0.000  22200.000      6.000    41.2537   -34.5679   -83.1731     1.2730    -1.5670    -0.0020    -0.0010    20.6267    41.2556     3.5285    14.6405    14.6392     0.0013   295.0000     9.7856     9.539
     93     0.1600     0.1600     2.1600      5.640      0.000  22200.000      6.000    41.2537   -34.5679   -83.4231     1.2730    -1.5670    -0.0020    -0.0010    20.6267    41.2556     3.5372    14.6405    14.6392     0.0013   295.0000     9.7856     9.539
     94     0.1653     0.1653     2.1651      5.567      0.000  22200.000      6.000    41.2537   -34.5679   -83.6839     1.2730    -1.5670    -0.0020    -0.0010    20.6267    41.2556     3.5462    14.6405    14.6392     0.0013   295.0000     9.7881     9.493
     95     0.1700     0.1699     2.1700      5.599      1.000  22200.000      6.000    41.2537   -34.5768   -83.9320     1.2730    -1.5670    -0.0020    -0.0010    20.6267    41.2556     3.5548    14.6405    14.6392     0.0013   295.0000     9.7885     9.541
     96     0.1752     0.1752     2.1750      5.677      1.000  22200.000      6.000    41.2537   -34.5768   -84.1898     1.2730    -1.5670    -0.0020    -0.0010    20.6267    41.2556     3.5637    14.6405    14.6392     0.0013   295.0000     9.7847     9.493
     97     0.1800     0.1800     2.1800      5.633      0.000  22200.000      6.000    41.2537   -34.5866   -84.4448     1.2730    -1.5670    -0.0020    -0.0010    20.6267    41.2556     3.5724    14.6405    14.6392     0.0013   295.0000     9.7847     9.493
     98     0.1850     0.1850     2.1850      5.604      2.000  22200.000      6.000    41.2537   -34.5945   -84.7036     1.2730    -1.5670    -0.0020    -0.0010    20.6267    41.2556     3.5813    14.6405    14.6392     0.0013   295.0000     9.8463     9.603
     99     0.1900     0.1900     2.1900      5.650      0.000  22200.000      6.000    41.2537   -34.6024   -84.9605     1.2730    -1.5670    -0.0020    -0.0010    20.6267    41.2556     3.5901    14.6405    14.6392     0.0013   295.0000     9.7863     9.485
    100     0.1950     0.1950     2.1950      5.592      0.000  22200.000      6.000    41.2537   -34.6122   -85.2213     1.2730    -1.5670    -0.0020    -0.0010    20.6267    41.2556     3.5990    14.6405    14.6392     0.0013   295.0000     9.7836     9.539
    101     0.2000     0.2000     2.2000      5.691      2.000  22200.000      6.000    41.2537   -34.6220   -85.4812     1.2730    -1.5670    -0.0020    -0.0010    20.6267    41.2556     3.6079    14.6405    14.6392     0.0013   295.0000     9.7836     9.539
    102     0.2050     0.2049     2.2050      5.621      1.000  22200.000      6.000    41.2537   -34.6348   -85.7430     1.2730    -1.5670    -0.0020    -0.0010    20.6267    41.2556     3.6168    14.6405    14.6392     0.0013   295.0000     9.7886     9.571
    103     0.2100     0.2100     2.2100      5.585      0.000  22200.000      6.000    41.2537   -34.6457   -86.0048     1.2730    -1.5670    -0.0020    -0.0010    20.6267    41.2556     3.6257    14.6405    14.6392     0.0013   295.0000     9.7833     9.538
    104     0.2151     0.2150     2.2150      5.623      3.000  22200.000      6.000    41.2537   -34.6594   -86.2706     1.2730    -1.5670    -0.0020    -0.0010    20.6267    41.2556     3.6347    14.6405    14.6392     0.0013   295.0000     9.7823     9.487
    105     0.2200     0.2199     2.2200      5.619      1.000  22200.000      6.000    41.2537   -34.6762   -86.5343     1.2730    -1.5670    -0.0020    -0.0010    20.6267    41.2556     3.6436    14.6405    14.6392     0.0013   295.0000     9.7823     9.487
    106     0.2250     0.2250     2.2250      5.616      0.000  22200.000      6.000    41.2537   -34.6900   -86.8001     1.2730    -1.5670    -0.0020    -0.0010    20.6267    41.2556     3.6526    14.6405    14.6392     0.0013   295.0000     9.8510     9.585
    107     0.2300     0.2300     2.2300      5.550      1.000  22200.000      6.000    41.2537   -34.7077   -87.0658     1.2730    -1.5670    -0.0020    -0.0010    20.6267    41.2556     3.6615    14.6405    14.6392     0.0013   295.0000     9.7787     9.534
    108     0.2350     0.2350     2.2350      5.665      1.000  22200.000      6.000    41.2537   -34.7264   -87.3345     1.2730    -1.5670    -0.0020    -0.0010    20.6267    41.2556     3.6706    14.6405    14.6392     0.0013   295.0000     9.7791     9.537
    109     0.2400     0.2400     2.2400      5.666      0.000  22200.000      6.000    41.2537   -34.7461   -87.6042     1.2730    -1.5670    -0.0020    -0.0010    20.6267    41.2556     3.6796    14.6405    14.6392     0.0013   295.0000     9.7812     9.557
    110     0.2450     0.2450     2.2450      5.582      0.000  22200.000      6.000    41.2537   -34.7648   -87.8729     1.2730    -1.5670    -0.0020    -0.0010    20.6267    41.2556     3.6886    14.6405    14.6392     0.0013   295.0000     9.7812     9.557
    111     0.2500     0.2500     2.2500      5.606      0.000  22200.000      6.000    41.2537   -34.7864   -88.1446     1.2730    -1.5670    -0.0020    -0.0010    20.6267    41.2556     3.6977    14.6405    14.6392     0.0013   295.0000     9.7788     9.539
    112     0.2550     0.2550     2.2550      5.616      1.000  22200.000      6.000    41.2537   -34.8100   -88.4172     1.2730    -1.5670    -0.0020    -0.0010    20.6267    41.2556     3.7067    14.6405    14.6392     0.0013   295.0000     9.7723     9.483
    113     0.2600     0.2600     2.2600      5.576      1.000  22200.000      6.000    41.2537   -34.8327   -88.6908     1.2730    -1.5670    -0.0020    -0.0010    20.6267    41.2556     3.7158    14.6405    14.6392     0.0013   295.0000     9.8434     9.612
    114     0.2651     0.2650     2.2650      5.680      0.000  22200.000      6.000    41.2537   -34.8563   -88.9635     1.2730    -1.5670    -0.0020    -0.0010    20.6267    41.2556     3.7249    14.6405    14.6392     0.0013   295.0000     9.8434     9.612
    115     0.2700     0.2700     2.2700      5.653      0.000  22200.000      6.000    41.2537   -34.8829   -89.2391     1.2730    -1.5670    -0.0020    -0.0010    20.6267    41.2556     3.7340    14.6405    14.6392     0.0013   295.0000     9.7719     9.534
    116     0.2750     0.2749     2.2750      5.618      2.000  22200.000      6.000    41.2537   -34.9104   -89.5137     1.2730    -1.5670    -0.0020    -0.0010    20.6267    41.2556     3.7430    14.6405    14.6392     0.0013   295.0000     9.7740     9.561
    117     0.2801     0.2801     2.2800      5.620      1.000  22200.000      6.000    41.2537   -34.9370   -89.7942     1.2730    -1.5670    -0.0020    -0.0010    20.6267    41.2556     3.7523    14.6405    14.6392     0.0013   295.0000     9.7711     9.482
    118     0.2850     0.2849     2.2850      5.703      0.000  22200.000      6.000    41.2537   -34.9665   -90.0688     1.2730    -1.5670    -0.0020    -0.0010    20.6267    41.2556     3.7613    14.6405    14.6392     0.0013   295.0000     9.7711     9.482
    119     0.2900     0.2900     2.2900      5.627      1.000  22200.000      6.000    41.2537   -34.9970   -90.3522     1.2730    -1.5670    -0.0020    -0.0010    20.6267    41.2556     3.7706    14.6405    14.6392     0.0013   295.0000     9.7733     9.542
    120     0.2950     0.2950     2.2950      5.614      1.000  22200.000      6.000    41.2537   -35.0276   -90.6318     1.2730    -1.5670    -0.0020    -0.0010    20.6267    41.2556     3.7797    14.6405    14.6392     0.0013   295.0000     9.7717     9.535
    121     0.3000     0.3000     2.3000      5.631      0.000  22200.000      6.000    41.2537   -35.0600   -90.9123     1.2730    -1.5670    -0.0020    -0.0010    20.6267    41.2556     3.7888    14.6405    14.6392     0.0013   295.0000     9.8291     9.527
    122     0.3051     0.3051     2.3051      5.670      2.000  22200.000      6.000    41.2537   -35.0935   -91.2007     1.2730    -1.5670    -0.0020    -0.0010    20.6267    41.2556     3.7982    14.6405    14.6392     0.0013   295.0000     9.8291     9.527
    123     0.3100     0.3100     2.3100      5.627      1.000  22200.000      6.000    41.2537   -35.1280   -91.4792     1.2730    -1.5670    -0.0020    -0.0010    20.6267    41.2556     3.8072    14.6405    14.6392     0.0013   295.0000     9.7718     9.503
    124     0.3150     0.3150     2.3150      5.637      0.000  22200.000      6.000    41.2537   -35.1634   -91.7666     1.2730    -1.5670    -0.0020    -0.0010    20.6267    41.2556     3.8165    14.6405    14.6392     0.0013   295.0000     9.7655     9.522
    125     0.3200     0.3199     2.3200      5.703      0.000  22200.000      6.000    41.2537   -35.2008   -92.0511     1.2730    -1.5670    -0.0020    -0.0010    20.6267    41.2556     3.8257    14.6405    14.6392     0.0013   295.0000     9.8279     9.529
    126     0.3250     0.3250     2.3250      5.606      0.000  22200.000      6.000    41.2537   -35.2382   -92.3395     1.2730    -1.5670    -0.0020    -0.0010    20.6267    41.2556     3.8350    14.6405    14.6392     0.0013   295.0000     9.7640     9.547
    127     0.3300     0.3300     2.3300      5.582      0.000  22200.000      6.000    41.2537   -35.2766   -92.6288     1.2730    -1.5670    -0.0020    -0.0010    20.6267    41.2556     3.8443    14.6405    14.6392     0.0013   295.0000     9.7640     9.547
    128     0.3350     0.3350     2.3350      5.657      1.000  22200.000      6.000    41.2537   -35.3159   -92.9162     1.2730    -1.5670    -0.0020    -0.0010    20.6267    41.2556     3.8535    14.6405    14.6392     0.0013   295.0000     9.7609     9.467
    129     0.3401     0.3400     2.3400      5.633      0.000  22200.000      6.000    41.2537   -35.3563   -93.2095     1.2730    -1.5670    -0.0020    -0.0010    20.6267    41.2556     3.8628    14.6405    14.6392     0.0013   295.0000     9.7594     9.526
    130     0.3450     0.3449     2.3450      5.584      1.000  22200.000      6.000    41.2537   -35.3996   -93.4999     1.2730    -1.5670    -0.0020    -0.0010    20.6267    41.2556     3.8721    14.6405    14.6392     0.0013   295.0000     9.7597     9.495
    131     0.3500     0.3500     2.3500      5.647      2.000  22200.000      6.000    41.2537   -35.4419   -93.7942     1.2730    -1.5670    -0.0020    -0.0010    20.6267    41.2556     3.8814    14.6405    14.6392     0.0013   295.0000     9.7597     9.495
    132     0.3549     0.3549     2.3550      5.608      0.000  22200.000      6.000    41.2537   -35.4872   -94.0875     1.2730    -1.5670    -0.0020    -0.0010    20.6267    41.2556     3.8907    14.6405    14.6392     0.0013   295.0000     9.7506     9.516
    133     0.3600     0.3600     2.3600      5.597      1.000  22200.000      6.000    41.2537   -35.5315   -94.3857     1.2730    -1.5670    -0.0020    -0.0010    20.6267    41.2556     3.9001    14.6405    14.6392     0.0013   295.0000     9.7535     9.521
    134     0.3650     0.3650     2.3650      5.624      1.000  22200.000      6.000    41.2537   -35.5787   -94.6839     1.2730    -1.5670    -0.0020    -0.0010    20.6267    41.2556     3.9095    14.6405    14.6392     0.0013   295.0000     9.7516     9.519
    135     0.3700     0.3699     2.3700      5.606      0.000  22200.000      6.000    41.2537   -35.6260   -94.9782     1.2730    -1.5670    -0.0020    -0.0010    20.6267    41.2556     3.9187    14.6405    14.6392     0.0013   295.0000     9.7516     9.519
    136     0.3750     0.3750     2.3750      5.588      1.000  22200.000      6.000    41.2537   -35.6752   -95.2814     1.2730    -1.5670    -0.0020    -0.0010    20.6267    41.2556     3.9282    14.6405    14.6392     0.0013   295.0000     9.7517     9.484
    137     0.3800     0.3800     2.3800      5.555      0.000  22200.000      6.000    41.2537   -35.7234   -95.5806     1.2730    -1.5670    -0.0020    -0.0010    20.6267    41.2556     3.9376    14.6405    14.6392     0.0013   295.0000     9.8192     9.527
    138     0.3850     0.3850     2.3850      5.549      1.000  22200.000      6.000    41.2537   -35.7756   -95.8828     1.2730    -1.5670    -0.0020    -0.0010    20.6267    41.2556     3.9470    14.6405    14.6392     0.0013   295.0000     9.7428     9.478
    139     0.3901     0.3901     2.3900      5.641      1.000  22200.000      6.000    41.2537   -35.8258   -96.1879     1.2730    -1.5670    -0.0020    -0.0010    20.6267    41.2556     3.9564    14.6405    14.6392     0.0013   295.0000     9.7428     9.478
    140     0.3950     0.3949     2.3950      5.619      2.000  22200.000      6.000    41.2537   -35.8809   -96.4891     1.2730    -1.5670    -0.0020    -0.0010    20.6267    41.2556     3.9657    14.6405    14.6392     0.0013   295.0000     9.7421     9.527
    141     0.4000     0.4000     2.4000      5.551      0.000  22200.000      6.000    41.2537   -35.9350   -96.7981     1.2730    -1.5670    -0.0020    -0.0010    20.6267    41.2556     3.9753    14.6405    14.6392     0.0013   295.0000     9.8054     9.511
    142     0.4050     0.4050     2.4050      5.630      2.000  22200.000      6.000    41.2537   -35.9892   -97.1022     1.2730    -1.5670    -0.0020    -0.0010    20.6267    41.2556     3.9846    14.6405    14.6392     0.0013   295.0000     9.7303     9.513
    143     0.4100     0.4100     2.4100      5.634      0.000  22200.000      6.000    41.2537   -36.0463   -97.4123     1.2730    -1.5670    -0.0020    -0.0010    20.6267    41.2556     3.9941    14.6405    14.6392     0.0013   295.0000     9.7309     9.580
    144     0.4151     0.4150     2.4150      5.655      1.000  22200.000      6.000    41.2537   -36.1033   -97.7233     1.2730    -1.5670    -0.0020    -0.0010    20.6267    41.2556     4.0036    14.6405    14.6392     0.0013   295.0000     9.7309     9.580
    145     0.4200     0.4200     2.4200      5.598      0.000  22200.000      6.000    41.2537   -36.1624   -98.0324     1.2730    -1.5670    -0.0020    -0.0010    20.6267    41.2556     4.0131    14.6405    14.6392     0.0013   295.0000     9.7167     9.484
    146     0.4250     0.4250     2.4250      5.612      1.000  22200.000      6.000    41.2537   -36.2224   -98.3463     1.2730    -1.5670    -0.0020    -0.0010    20.6267    41.2556     4.0226    14.6405    14.6392     0.0013   295.0000     9.7131     9.463
    147     0.4301     0.4300     2.4301      5.656      2.000  22200.000      6.000    41.2537   -36.2844   -98.6643     1.2730    -1.5670    -0.0020    -0.0010    20.6267    41.2556     4.0322    14.6405    14.6392     0.0013   295.0000     9.7140     9.508
    148     0.4350     0.4350     2.4350      5.609      1.000  22200.000      6.000    41.2537   -36.3455   -98.9743     1.2730    -1.5670    -0.0020    -0.0010    20.6267    41.2556     4.0416    14.6405    14.6392     0.0013   295.0000     9.7140     9.508
    149     0.4400     0.4400     2.4400      5.672      1.000  22200.000      6.000    41.2537   -36.4094   -99.2922     1.2730    -1.5670    -0.0020    -0.0010    20.6267    41.2556     4.0512    14.6405    14.6392     0.0013   295.0000     9.7763     9.493
    150     0.4450     0.4450     2.4450      5.634      1.000  22200.000      6.000    41.2537   -36.4724   -99.6091     1.2730    -1.5670    -0.0020    -0.0010    20.6267    41.2556     4.0607    14.6405    14.6392     0.0013   295.0000     9.7058     9.485
    151     0.4500     0.4500     2.4500      5.652      0.000  22200.000      6.000    41.2537   -36.5374   -99.9280     1.2730    -1.5670    -0.0020    -0.0010    20.6267    41.2556     4.0702    14.6405    14.6392     0.0013   295.0000     9.7051     9.472
    152     0.4551     0.4550     2.4550      5.652      0.000  22200.000      6.000    41.2537   -36.6053  -100.2519     1.2730    -1.5670    -0.0020    -0.0010    20.6267    41.2556     4.0798    14.6405    14.6392     0.0013   295.0000     9.7051     9.472
    153     0.4600     0.4600     2.4600      5.544      1.000  22200.000      6.000    41.2537   -36.6732  -100.5717     1.2730    -1.5670    -0.0020    -0.0010    20.6267    41.2556     4.0893    14.6405    14.6392     0.0013   295.0000     9.7634     9.554
    154     0.4651     0.4650     2.4650      5.590      2.000  22200.000      6.000    41.2537   -36.7411  -100.8965     1.2730    -1.5670    -0.0020    -0.0010    20.6267    41.2556     4.0989    14.6405    14.6392     0.0013   295.0000     9.7038     9.482
    155     0.4700     0.4700     2.4700      5.661      1.000  22200.000      6.000    41.2537   -36.8130  -101.2213     1.2730    -1.5670    -0.0020    -0.0010    20.6267    41.2556     4.1085    14.6405    14.6392     0.0013   295.0000     9.6991     9.482
    156     0.4750     0.4750     2.4750      5.611      4.000  22200.000      6.000    41.2537   -36.8839  -101.5481     1.2730    -1.5670    -0.0020    -0.0010    20.6267    41.2556     4.1181    14.6405    14.6392     0.0013   295.0000     9.7049     9.496
    157     0.4800     0.4800     2.4800      5.581     15.000  22200.000      6.000    41.2537   -36.9567  -101.8769     1.2730    -1.5670    -0.0020    -0.0010    20.6267    41.2556     4.1278    14.6405    14.6392     0.0013   295.0000     9.7049     9.496
    158     0.4851     0.4850     2.4850      5.611     48.000  22200.000      6.000    41.2537   -37.0295  -102.2066     1.2730    -1.5670    -0.0020    -0.0010    20.6267    41.2556     4.1374    14.6405    14.6392     0.0013   295.0000     9.7076     9.476
    159     0.4900     0.4900     2.4900      5.669    147.000  22200.000      6.000    41.2537   -37.1043  -102.5373     1.2730    -1.5670    -0.0020    -0.0010    20.6267    41.2556     4.1470    14.6405    14.6392     0.0013   295.0000     9.7162     9.499
    160     0.4950     0.4950     2.4950      5.639    276.000  22200.000      6.000    41.2537   -37.1811  -102.8709     1.2730    -1.5670    -0.0020    -0.0010    20.6267    41.2556     4.1567    14.6405    14.6392     0.0013   295.0000     9.7112     9.491
    161     0.5000     0.5000     2.5000      5.576    313.000  22200.000      6.000    41.2537   -37.2589  -103.2046     1.2730    -1.5670    -0.0020    -0.0010    20.6267    41.2556     4.1663    14.6405    14.6392     0.0013   295.0000     9.7112     9.491
    162     0.5049     0.5049     2.5050      5.670    283.000  22200.000      6.000    41.2537   -37.3386  -103.5402     1.2730    -1.5670    -0.0020    -0.0010    20.6267    41.2556     4.1759    14.6405    14.6392     0.0013   295.0000     9.7125     9.488
    163     0.5100     0.5100     2.5100      5.661    147.000  22200.000      6.000    41.2537   -37.4183  -103.8798     1.2730    -1.5670    -0.0020    -0.0010    20.6267    41.2556     4.1857    14.6405    14.6392     0.0013   295.0000     9.7219     9.511
    164     0.5150     0.5150     2.5150      5.623     54.000  22200.000      6.000    41.2537   -37.4980  -104.2184     1.2730    -1.5670    -0.0020    -0.0010    20.6267    41.2556     4.1953    14.6405    14.6392     0.0013   295.0000     9.7374     9.542
    165     0.5200     0.5200     2.5200      5.572      8.000  22200.000      6.000    41.2537   -37.5797  -104.5580     1.2730    -1.5670    -0.0020    -0.0010    20.6267    41.2556     4.2050    14.6405    14.6392     0.0013   295.0000     9.7329     9.491
    166     0.5250     0.5250     2.5250      5.601      4.000  22200.000      6.000    41.2537   -37.6644  -104.9024     1.2730    -1.5670    -0.0020    -0.0010    20.6267    41.2556     4.2148    14.6405    14.6392     0.0013   295.0000     9.7329     9.491
    167     0.5300     0.5300     2.5300      5.573      0.000  22200.000      6.000    41.2537   -37.7490  -105.2459     1.2730    -1.5670    -0.0020    -0.0010    20.6267    41.2556     4.2244    14.6405    14.6392     0.0013   295.0000     9.7430     9.482
    168     0.5351     0.5350     2.5350      5.581      0.000  22200.000      6.000    41.2537   -37.8346  -105.5934     1.2730    -1.5670    -0.0020    -0.0010    20.6267    41.2556     4.2342    14.6405    14.6392     0.0013   295.0000     9.7109     9.481
    169     0.5400     0.5399     2.5400      5.583      0.000  22200.000      6.000    41.2537   -37.9222  -105.9379     1.2730    -1.5670    -0.0020    -0.0010    20.6267    41.2556     4.2439    14.6405    14.6392     0.0013   295.0000     9.7479     9.533
    170     0.5451     0.5450     2.5451      5.636      0.000  22200.000      6.000    41.2537   -38.0118  -106.2942     1.2730    -1.5670    -0.0020    -0.0010    20.6267    41.2556     4.2538    14.6405    14.6392     0.0013   295.0000     9.7479     9.533
    171     0.5500     0.5500     2.5500      5.650      1.000  22200.000      6.000    41.2537   -38.1004  -106.6416     1.2730    -1.5670    -0.0020    -0.0010    20.6267    41.2556     4.2634    14.6405    14.6392     0.0013   295.0000     9.7543     9.499
    172     0.5550     0.5549     2.5550      5.700      0.000  22200.000      6.000    41.2537   -38.1919  -106.9930     1.2730    -1.5670    -0.0020    -0.0010    20.6267    41.2556     4.2732    14.6405    14.6392     0.0013   295.0000     9.7567     9.560
    173     0.5600     0.5600     2.5600      5.675      0.000  22200.000      6.000    41.2537   -38.2844  -107.3493     1.2730    -1.5670    -0.0020    -0.0010    20.6267    41.2556     4.2830    14.6405    14.6392     0.0013   295.0000     9.7664     9.500
    174     0.5650     0.5650     2.5650      5.559      0.000  22200.000      6.000    41.2537   -38.3780  -107.7056     1.2730    -1.5670    -0.0020    -0.0010    20.6267    41.2556     4.2927    14.6405    14.6392     0.0013   295.0000     9.7682     9.520
    175     0.5700     0.5700     2.5700      5.689      0.000  22200.000      6.000    41.2537   -38.4724  -108.0639     1.2730    -1.5670    -0.0020    -0.0010    20.6267    41.2556     4.3025    14.6405    14.6392     0.0013   295.0000     9.7682     9.520
    176     0.5751     0.5750     2.5750      5.612      1.000  22200.000      6.000    41.2537   -38.5679  -108.4251     1.2730    -1.5670    -0.0020    -0.0010    20.6267    41.2556     4.3123    14.6405    14.6392     0.0013   295.0000     9.7174     9.498
    177     0.5801     0.5800     2.5800      5.657      0.000  22200.000      6.000    41.2537   -38.6663  -108.7883     1.2730    -1.5670    -0.0020    -0.0010    20.6267    41.2556     4.3222    14.6405    14.6392     0.0013   295.0000     9.7694     9.545
    178     0.5851     0.5850     2.5850      5.631      2.000  22200.000      6.000    41.2537   -38.7648  -109.1515     1.2730    -1.5670    -0.0020    -0.0010    20.6267    41.2556     4.3320    14.6405    14.6392     0.0013   295.0000     9.7739     9.561
    179     0.5901     0.5901     2.5900      5.599      0.000  22200.000      6.000    41.2537   -38.8642  -109.5176     1.2730    -1.5670    -0.0020    -0.0010    20.6267    41.2556     4.3418    14.6405    14.6392     0.0013   295.0000     9.7842     9.610
    180     0.5950     0.5949     2.5950      5.669      0.000  22200.000      6.000    41.2537   -38.9695  -109.8867     1.2730    -1.5670    -0.0020    -0.0010    20.6267    41.2556     4.3516    14.6405    14.6392     0.0013   295.0000     9.7842     9.610
    181     0.6000     0.6000     2.6000      5.628      1.000  22200.000      6.000    41.2537   -39.0709  -110.2568     1.2730    -1.5670    -0.0020    -0.0010    20.6267    41.2556     4.3615    14.6405    14.6392     0.0013   295.0000     9.7834     9.505
    182     0.6051     0.6050     2.6050      5.599      1.000  22200.000      6.000    41.2537   -39.1752  -110.6308     1.2730    -1.5670    -0.0020    -0.0010    20.6267    41.2556     4.3714    14.6405    14.6392     0.0013   295.0000     9.7873     9.578
    183     0.6100     0.6099     2.6100      5.650      0.000  22200.000      6.000    41.2537   -39.2815  -111.0019     1.2730    -1.5670    -0.0020    -0.0010    20.6267    41.2556     4.3812    14.6405    14.6392     0.0013   295.0000     9.7190     9.528
    184     0.6150     0.6149     2.6150      5.679      2.000  22200.000      6.000    41.2537   -39.3907  -111.3818     1.2730    -1.5670    -0.0020    -0.0010    20.6267    41.2556     4.3911    14.6405    14.6392     0.0013   295.0000     9.7190     9.528
    185     0.6201     0.6200     2.6200      5.667      2.000  22200.000      6.000    41.2537   -39.4980  -111.7607     1.2730    -1.5670    -0.0020    -0.0010    20.6267    41.2556     4.4010    14.6405    14.6392     0.0013   295.0000     9.7828     9.565
    186     0.6250     0.6249     2.6250      5.602      1.000  22200.000      6.000    41.2537   -39.6093  -112.1396     1.2730    -1.5670    -0.0020    -0.0010    20.6267    41.2556     4.4108    14.6405    14.6392     0.0013   295.0000     9.7802     9.560
    187     0.6300     0.6299     2.6300      5.629      3.000  22200.000      6.000    41.2537   -39.7215  -112.5235     1.2730    -1.5670    -0.0020    -0.0010    20.6267    41.2556     4.4207    14.6405    14.6392     0.0013   295.0000     9.7214     9.503
    188     0.6351     0.6350     2.6350      5.608      2.000  22200.000      6.000    41.2537   -39.8327  -112.9093     1.2730    -1.5670    -0.0020    -0.0010    20.6267    41.2556     4.4307    14.6405    14.6392     0.0013   295.0000     9.7929     9.540
    189     0.6401     0.6401     2.6400      5.644      2.000  22200.000      6.000    41.2537   -39.9469  -113.2981     1.2730    -1.5670    -0.0020    -0.0010    20.6267    41.2556     4.4406    14.6405    14.6392     0.0013   295.0000     9.7929     9.540
    190     0.6452     0.6451     2.6450      5.610      0.000  22200.000      6.000    41.2537   -40.0640  -113.6928     1.2730    -1.5670    -0.0020    -0.0010    20.6267    41.2556     4.4506    14.6405    14.6392     0.0013   295.0000     9.7937     9.588
    191     0.6500     0.6500     2.6500      5.677      0.000  22200.000      6.000    41.2537   -40.1821  -114.0786     1.2730    -1.5670    -0.0020    -0.0010    20.6267    41.2556     4.4604    14.6405    14.6392     0.0013   295.0000     9.7922     9.530
    192     0.6550     0.6549     2.6550      5.660      1.000  22200.000      6.000    41.2537   -40.3022  -114.4743     1.2730    -1.5670    -0.0020    -0.0010    20.6267    41.2556     4.4704    14.6405    14.6392     0.0013   295.0000     9.7915     9.588
    193     0.6600     0.6599     2.6600      5.613      1.000  22200.000      6.000    41.2537   -40.4242  -114.8729     1.2730    -1.5670    -0.0020    -0.0010    20.6267    41.2556     4.4803    14.6405    14.6392     0.0013   295.0000     9.7915     9.588
    194     0.6650     0.6649     2.6650      5.622      0.000  22200.000      6.000    41.2537   -40.5463  -115.2725     1.2730    -1.5670    -0.0020    -0.0010    20.6267    41.2556     4.4903    14.6405    14.6392     0.0013   295.0000     9.7981     9.609
    195     0.6700     0.6699     2.6700      5.617      0.000  22200.000      6.000    41.2537   -40.6713  -115.6751     1.2730    -1.5670    -0.0020    -0.0010    20.6267    41.2556     4.5003    14.6405    14.6392     0.0013   295.0000     9.7946     9.507
    196     0.6750     0.6750     2.6750      5.573      0.000  22200.000      6.000    41.2537   -40.7953  -116.0796     1.2730    -1.5670    -0.0020    -0.0010    20.6267    41.2556     4.5102    14.6405    14.6392     0.0013   295.0000     9.8015     9.585
    197     0.6801     0.6800     2.6800      5.652      1.000  22200.000      6.000    41.2537   -40.9213  -116.4871     1.2730    -1.5670    -0.0020    -0.0010    20.6267    41.2556     4.5202    14.6405    14.6392     0.0013   295.0000     9.8071     9.610
    198     0.6851     0.6850     2.6850      5.619      0.000  22200.000      6.000    41.2537   -41.0522  -116.8985     1.2730    -1.5670    -0.0020    -0.0010    20.6267    41.2556     4.5302    14.6405    14.6392     0.0013   295.0000     9.8071     9.610
    199     0.6901     0.6900     2.6900      5.646      1.000  22200.000      6.000    41.2537   -41.1821  -117.3109     1.2730    -1.5670    -0.0020    -0.0010    20.6267    41.2556     4.5402    14.6405    14.6392     0.0013   295.0000     9.8055     9.524
    200     0.6950     0.6950     2.6950      5.614      1.000  22200.000      6.000    41.2537   -41.3159  -117.7272     1.2730    -1.5670    -0.0020    -0.0010    20.6267    41.2556     4.5502    14.6405    14.6392     0.0013   295.0000     9.8102     9.596
    201     0.7000     0.7000     2.7000      5.681      0.000  22200.000      6.000    41.2537   -41.4498  -118.1446     1.2730    -1.5670    -0.0020    -0.0010    20.6267    41.2556     4.5602    14.6405    14.6392     0.0013   295.0000     9.8150     9.579
    202     0.7051     0.7050     2.7050      5.639      2.000  22200.000      6.000    41.2537   -41.5856  -118.5678     1.2730    -1.5670    -0.0020    -0.0010    20.6267    41.2556     4.5703    14.6405    14.6392     0.0013   295.0000     9.7565     9.582
    203     0.7100     0.7099     2.7100      5.669      0.000  22200.000      6.000    41.2537   -41.7254  -118.9910     1.2730    -1.5670    -0.0020    -0.0010    20.6267    41.2556     4.5803    14.6405    14.6392     0.0013   295.0000     9.7565     9.582
    204     0.7151     0.7150     2.7150      5.663      1.000  22200.000      6.000    41.2537   -41.8632  -119.4192     1.2730    -1.5670    -0.0020    -0.0010    20.6267    41.2556     4.5903    14.6405    14.6392     0.0013   295.0000     9.8251     9.605
    205     0.7201     0.7200     2.7200      5.662      1.000  22200.000      6.000    41.2537   -42.0049  -119.8503     1.2730    -1.5670    -0.0020    -0.0010    20.6267    41.2556     4.6004    14.6405    14.6392     0.0013   295.0000     9.8267     9.605
    206     0.7250     0.7250     2.7250      5.680      2.000  22200.000      6.000    41.2537   -42.1486  -120.2824     1.2730    -1.5670    -0.0020    -0.0010    20.6267    41.2556     4.6104    14.6405    14.6392     0.0013   295.0000     9.8266     9.561
    207     0.7301     0.7300     2.7300      5.733      3.000  22200.000      6.000    41.2537   -42.2953  -120.7233     1.2730    -1.5670    -0.0020    -0.0010    20.6267    41.2556     4.6205    14.6405    14.6392     0.0013   295.0000     9.8266     9.561
    208     0.7351     0.7351     2.7350      5.586      1.000  22200.000      6.000    41.2537   -42.4419  -121.1652     1.2730    -1.5670    -0.0020    -0.0010    20.6267    41.2556     4.6306    14.6405    14.6392     0.0013   295.0000     9.8335     9.638
    209     0.7400     0.7399     2.7400      5.688      2.000  22200.000      6.000    41.2537   -42.5915  -121.6042     1.2730    -1.5670    -0.0020    -0.0010    20.6267    41.2556     4.6406    14.6405    14.6392     0.0013   295.0000     9.8303     9.562
    210     0.7450     0.7450     2.7450      5.561      0.000  22200.000      6.000    41.2537   -42.7421  -122.0511     1.2730    -1.5670    -0.0020    -0.0010    20.6267    41.2556     4.6507    14.6405    14.6392     0.0013   295.0000     9.7629     9.565
    211     0.7500     0.7500     2.7500      5.657      1.000  22200.000      6.000    41.2537   -42.8957  -122.5019     1.2730    -1.5670    -0.0020    -0.0010    20.6267    41.2556     4.6608    14.6405    14.6392     0.0013   295.0000     9.8324     9.624
    212     0.7551     0.7550     2.7550      5.608      3.000  22200.000      6.000    41.2537   -43.0512  -122.9566     1.2730    -1.5670    -0.0020    -0.0010    20.6267    41.2556     4.6709    14.6405    14.6392     0.0013   295.0000     9.8324     9.624
    213     0.7600     0.7600     2.7600      5.486      0.000  22200.000      6.000    41.2537   -43.2096  -123.4152     1.2730    -1.5670    -0.0020    -0.0010    20.6267    41.2556     4.6810    14.6405    14.6392     0.0013   295.0000     9.8374     9.563
    214     0.7650     0.7649     2.7650      5.606      0.000  22200.000      6.000    41.2537   -43.3701  -123.8759     1.2730    -1.5670    -0.0020    -0.0010    20.6267    41.2556     4.6911    14.6405    14.6392     0.0013   295.0000     9.8391     9.548
    215     0.7700     0.7699     2.7700      5.622      2.000  22200.000      6.000    41.2537   -43.5325  -124.3414     1.2730    -1.5670    -0.0020    -0.0010    20.6267    41.2556     4.7012    14.6405    14.6392     0.0013   295.0000     9.8367     9.599
    216     0.7750     0.7749     2.7750      5.627      0.000  22200.000      6.000    41.2537   -43.6969  -124.8099     1.2730    -1.5670    -0.0020    -0.0010    20.6267    41.2556     4.7113    14.6405    14.6392     0.0013   295.0000     9.8454     9.623
    217     0.7801     0.7800     2.7800      5.630      0.000  22200.000      6.000    41.2537   -43.8622  -125.2843     1.2730    -1.5670    -0.0020    -0.0010    20.6267    41.2556     4.7215    14.6405    14.6392     0.0013   295.0000     9.8454     9.623
    218     0.7850     0.7850     2.7850      5.615      1.000  22200.000      6.000    41.2537   -44.0325  -125.7637     1.2730    -1.5670    -0.0020    -0.0010    20.6267    41.2556     4.7317    14.6405    14.6392     0.0013   295.0000     9.8434     9.561
    219     0.7900     0.7899     2.7900      5.607      0.000  22200.000      6.000    41.2537   -44.2028  -126.2420     1.2730    -1.5670    -0.0020    -0.0010    20.6267    41.2556     4.7417    14.6405    14.6392     0.0013   295.0000     9.8546     9.591
    220     0.7950     0.7949     2.7950      5.663      1.000  22200.000      6.000    41.2537   -44.3780  -126.7292     1.2730    -1.5670    -0.0020    -0.0010    20.6266    41.2556     4.7519    14.6405    14.6392     0.0013   295.0000     9.8517     9.622
    221     0.8000     0.8000     2.8000      5.687      1.000  22200.000      6.000    41.2537   -44.5531  -127.2194     1.2730    -1.5670    -0.0020    -0.0010    20.6266    41.2556     4.7621    14.6405    14.6392     0.0013   295.0000     9.7912     9.512
# Sum of Counts = 13363
# Center of Mass = 0.051728+/-0.001474
# Full Width Half-Maximum = 0.307831+/-0.004054
# 3:24:19 AM  11/9/2003   scan completed.
