# scan = 37
# date = 11/9/2003
# time = 1:39:45 AM
# experiment = TbPtIn single crystal;  100 plane
# experiment_number = 41
# command = scan h 0.7 2.505 .005 k 0.7 2.505 .005 l -0.3 1.505 .005 preset mcu 6
# builtin_command = scan h 0.7 2.505 .005 k 0.7 2.505 .005 l -0.3 1.505 .005 preset mcu 6
# users = O.Garlea, C.Stassis, J.L.Zarestky
# local_contact = J.L.Zarestky
# scan_title = h,h,h-1 scan
# monochromator = PG002
# analyzer = Pg002
# sense = +-+
# collimation = 48-40-40-102
# samplename = TbPtIn
# sampletype = crystal
# samplemosaic = 30.000000
# latticeconstants = 7.554017,7.554017,3.847681,90.000000,90.000000,120.000000
# ubmatrix = -0.008230,-0.004834,0.259516,-0.134256,-0.130074,-0.012979,0.072618,-0.080146,0.005414
# mode = 0
# plane_normal = -0.022217,-0.027363,0.999379
# ubconf = C:\User\exp41\UBConf\UB08Nov2003_100555PM.ini
# preset_type = normal 
# preset_channel = mcu
# preset_value = 6.000000
# def_x = h
# def_y = detector
# col_headers = 
#   Pt.          h          k          l       time   detector    monitor        mcu         m2         s1         s2        sgl        sgu        stl        stu         a1         a2          q         ei         ef          e       temp    coldtip    tsample
      1     0.7000     0.7000    -0.3001      5.613      1.000  22200.000      6.000    41.2537   101.8967   -27.4959     1.2730    -1.5670    -0.0020    -0.0010    20.6267    41.2556     1.2634    14.6405    14.6392     0.0013   295.0000     9.8070     9.531
      2     0.7051     0.7050    -0.2950      5.603      0.000  22200.000      6.000    41.2537   101.3524   -27.5963     1.2730    -1.5670    -0.0020    -0.0010    20.6267    41.2556     1.2679    14.6405    14.6392     0.0013   295.0000     9.7391     9.504
      3     0.7100     0.7100    -0.2900      5.630      3.000  22200.000      6.000    41.2537   100.8209   -27.6987     1.2730    -1.5670    -0.0020    -0.0010    20.6267    41.2556     1.2725    14.6405    14.6392     0.0013   295.0000     9.8163     9.519
      4     0.7150     0.7150    -0.2850      5.610      0.000  22200.000      6.000    41.2537   100.2894   -27.8030     1.2730    -1.5670    -0.0020    -0.0010    20.6267    41.2556     1.2772    14.6405    14.6392     0.0013   295.0000     9.7521     9.531
      5     0.7200     0.7200    -0.2800      5.597      2.000  22200.000      6.000    41.2537    99.7608   -27.9103     1.2730    -1.5670    -0.0020    -0.0010    20.6267    41.2556     1.2820    14.6405    14.6392     0.0013   295.0000     9.7542     9.594
      6     0.7250     0.7249    -0.2750      5.688      0.000  22200.000      6.000    41.2537    99.2362   -28.0186     1.2730    -1.5670    -0.0020    -0.0010    20.6267    41.2556     1.2869    14.6405    14.6392     0.0013   295.0000     9.7542     9.594
      7     0.7301     0.7300    -0.2700      5.625      0.000  22200.000      6.000    41.2537    98.7116   -28.1328     1.2730    -1.5670    -0.0020    -0.0010    20.6267    41.2556     1.2920    14.6405    14.6392     0.0013   295.0000     9.7542     9.535
      8     0.7350     0.7350    -0.2650      5.597      0.000  22200.000      6.000    41.2537    98.1909   -28.2430     1.2730    -1.5670    -0.0020    -0.0010    20.6267    41.2556     1.2970    14.6405    14.6392     0.0013   295.0000     9.7448     9.457
      9     0.7400     0.7400    -0.2600      5.602      0.000  22200.000      6.000    41.2537    97.6732   -28.3582     1.2730    -1.5670    -0.0020    -0.0010    20.6267    41.2556     1.3022    14.6405    14.6392     0.0013   295.0000     9.7519     9.533
     10     0.7450     0.7449    -0.2550      5.592      0.000  22200.000      6.000    41.2537    97.1624   -28.4733     1.2730    -1.5670    -0.0020    -0.0010    20.6267    41.2556     1.3074    14.6405    14.6392     0.0013   295.0000     9.7519     9.533
     11     0.7500     0.7500    -0.2500      5.655      0.000  22200.000      6.000    41.2537    96.6476   -28.5934     1.2730    -1.5670    -0.0020    -0.0010    20.6267    41.2556     1.3128    14.6405    14.6392     0.0013   295.0000     9.7571     9.472
     12     0.7550     0.7550    -0.2450      5.632      0.000  22200.000      6.000    41.2537    96.1388   -28.7135     1.2730    -1.5670    -0.0020    -0.0010    20.6267    41.2556     1.3182    14.6405    14.6392     0.0013   295.0000     9.7515     9.444
     13     0.7600     0.7599    -0.2400      5.589      2.000  22200.000      6.000    41.2537    95.6289   -28.8345     1.2730    -1.5670    -0.0020    -0.0010    20.6267    41.2556     1.3236    14.6405    14.6392     0.0013   295.0000     9.7577     9.468
     14     0.7650     0.7650    -0.2350      5.655      1.000  22200.000      6.000    41.2537    95.1250   -28.9585     1.2730    -1.5670    -0.0020    -0.0010    20.6267    41.2556     1.3292    14.6405    14.6392     0.0013   295.0000     9.7577     9.468
     15     0.7700     0.7700    -0.2300      5.649      1.000  22200.000      6.000    41.2537    94.6250   -29.0855     1.2730    -1.5670    -0.0020    -0.0010    20.6267    41.2556     1.3349    14.6405    14.6392     0.0013   295.0000     9.8215     9.541
     16     0.7750     0.7750    -0.2251      5.573      2.000  22200.000      6.000    41.2537    94.1299   -29.2135     1.2730    -1.5670    -0.0020    -0.0010    20.6267    41.2556     1.3406    14.6405    14.6392     0.0013   295.0000     9.7591     9.473
     17     0.7800     0.7799    -0.2200      5.597      3.000  22200.000      6.000    41.2537    93.6289   -29.3404     1.2730    -1.5670    -0.0020    -0.0010    20.6267    41.2556     1.3463    14.6405    14.6392     0.0013   295.0000     9.7574     9.536
     18     0.7850     0.7850    -0.2150      5.581      0.000  22200.000      6.000    41.2537    93.1329   -29.4723     1.2730    -1.5670    -0.0020    -0.0010    20.6267    41.2556     1.3522    14.6405    14.6392     0.0013   295.0000     9.7574     9.536
     19     0.7900     0.7900    -0.2100      5.627      2.000  22200.000      6.000    41.2537    92.6467   -29.6052     1.2730    -1.5670    -0.0020    -0.0010    20.6267    41.2556     1.3582    14.6405    14.6392     0.0013   295.0000     9.7630     9.513
     20     0.7950     0.7950    -0.2050      5.566      0.000  22200.000      6.000    41.2537    92.1604   -29.7400     1.2730    -1.5670    -0.0020    -0.0010    20.6267    41.2556     1.3642    14.6405    14.6392     0.0013   295.0000     9.7723     9.527
     21     0.8000     0.8000    -0.2000      5.621      1.000  22200.000      6.000    41.2537    91.6742   -29.8749     1.2730    -1.5670    -0.0020    -0.0010    20.6267    41.2556     1.3703    14.6405    14.6392     0.0013   295.0000     9.7640     9.481
     22     0.8050     0.8049    -0.1950      5.645      1.000  22200.000      6.000    41.2537    91.1949   -30.0117     1.2730    -1.5670    -0.0020    -0.0010    20.6267    41.2556     1.3764    14.6405    14.6392     0.0013   295.0000     9.7640     9.481
     23     0.8100     0.8100    -0.1900      5.666      1.000  22200.000      6.000    41.2537    90.7156   -30.1524     1.2730    -1.5670    -0.0020    -0.0010    20.6267    41.2556     1.3827    14.6405    14.6392     0.0013   295.0000     9.8237     9.525
     24     0.8151     0.8150    -0.1850      5.599      0.000  22200.000      6.000    41.2537    90.2402   -30.2942     1.2730    -1.5670    -0.0020    -0.0010    20.6267    41.2556     1.3891    14.6405    14.6392     0.0013   295.0000     9.7685     9.524
     25     0.8200     0.8200    -0.1800      5.656      1.000  22200.000      6.000    41.2537    89.7667   -30.4359     1.2730    -1.5670    -0.0020    -0.0010    20.6267    41.2556     1.3954    14.6405    14.6392     0.0013   295.0000     9.7769     9.550
     26     0.8250     0.8250    -0.1750      5.575      0.000  22200.000      6.000    41.2537    89.2953   -30.5796     1.2730    -1.5670    -0.0020    -0.0010    20.6267    41.2556     1.4019    14.6405    14.6392     0.0013   295.0000     9.7769     9.550
     27     0.8301     0.8300    -0.1701      5.644      0.000  22200.000      6.000    41.2537    88.8327   -30.7263     1.2730    -1.5670    -0.0020    -0.0010    20.6267    41.2556     1.4084    14.6405    14.6392     0.0013   295.0000     9.8290     9.531
     28     0.8350     0.8349    -0.1650      5.648      1.000  22200.000      6.000    41.2537    88.3661   -30.8709     1.2730    -1.5670    -0.0020    -0.0010    20.6267    41.2556     1.4149    14.6405    14.6392     0.0013   295.0000     9.7764     9.529
     29     0.8401     0.8400    -0.1600      5.532      5.000  22200.000      6.000    41.2537    87.9055   -31.0225     1.2730    -1.5670    -0.0020    -0.0010    20.6267    41.2556     1.4217    14.6405    14.6392     0.0013   295.0000     9.7816     9.502
     30     0.8451     0.8450    -0.1550      5.632      1.000  22200.000      6.000    41.2537    87.4459   -31.1741     1.2730    -1.5670    -0.0020    -0.0010    20.6267    41.2556     1.4284    14.6405    14.6392     0.0013   295.0000     9.7816     9.502
     31     0.8500     0.8500    -0.1500      5.636      1.000  22200.000      6.000    41.2537    86.9931   -31.3227     1.2730    -1.5670    -0.0020    -0.0010    20.6267    41.2556     1.4351    14.6405    14.6392     0.0013   295.0000     9.8363     9.533
     32     0.8550     0.8550    -0.1450      5.660      2.000  22200.000      6.000    41.2537    86.5374   -31.4753     1.2730    -1.5670    -0.0020    -0.0010    20.6267    41.2556     1.4419    14.6405    14.6392     0.0013   295.0000     9.7832     9.482
     33     0.8600     0.8599    -0.1400      5.668      0.000  22200.000      6.000    41.2537    86.0896   -31.6288     1.2730    -1.5670    -0.0020    -0.0010    20.6267    41.2556     1.4487    14.6405    14.6392     0.0013   295.0000     9.7882     9.568
     34     0.8650     0.8650    -0.1350      5.649      1.000  22200.000      6.000    41.2537    85.6427   -31.7853     1.2730    -1.5670    -0.0020    -0.0010    20.6267    41.2556     1.4557    14.6405    14.6392     0.0013   295.0000     9.7882     9.568
     35     0.8700     0.8699    -0.1300      5.640      1.000  22200.000      6.000    41.2537    85.1969   -31.9418     1.2730    -1.5670    -0.0020    -0.0010    20.6267    41.2556     1.4627    14.6405    14.6392     0.0013   295.0000     9.8377     9.552
     36     0.8750     0.8750    -0.1250      5.590      1.000  22200.000      6.000    41.2537    84.7579   -32.1022     1.2730    -1.5670    -0.0020    -0.0010    20.6267    41.2556     1.4699    14.6405    14.6392     0.0013   295.0000     9.7891     9.559
     37     0.8800     0.8800    -0.1200      5.742      4.000  22200.000      6.000    41.2537    84.3189   -32.2617     1.2730    -1.5670    -0.0020    -0.0010    20.6267    41.2556     1.4770    14.6405    14.6392     0.0013   295.0000     9.7917     9.511
     38     0.8850     0.8849    -0.1150      5.655      2.000  22200.000      6.000    41.2537    83.8839   -32.4221     1.2730    -1.5670    -0.0020    -0.0010    20.6267    41.2556     1.4841    14.6405    14.6392     0.0013   295.0000     9.7917     9.511
     39     0.8900     0.8900    -0.1100      5.728      1.000  22200.000      6.000    41.2537    83.4478   -32.5855     1.2730    -1.5670    -0.0020    -0.0010    20.6267    41.2556     1.4914    14.6405    14.6392     0.0013   295.0000     9.7942     9.557
     40     0.8951     0.8950    -0.1051      5.616      1.000  22200.000      6.000    41.2537    83.0217   -32.7509     1.2730    -1.5670    -0.0020    -0.0010    20.6267    41.2556     1.4988    14.6405    14.6392     0.0013   295.0000     9.7891     9.491
     41     0.9000     0.8999    -0.1000      5.670      0.000  22200.000      6.000    41.2537    82.5925   -32.9143     1.2730    -1.5670    -0.0020    -0.0010    20.6267    41.2556     1.5060    14.6405    14.6392     0.0013   295.0000     9.7882     9.559
     42     0.9050     0.9050    -0.0950      5.618      1.000  22200.000      6.000    41.2537    82.1673   -33.0816     1.2730    -1.5670    -0.0020    -0.0010    20.6267    41.2556     1.5135    14.6405    14.6392     0.0013   295.0000     9.7882     9.559
     43     0.9101     0.9100    -0.0900      5.611      0.000  22200.000      6.000    41.2537    81.7441   -33.2499     1.2730    -1.5670    -0.0020    -0.0010    20.6267    41.2556     1.5210    14.6405    14.6392     0.0013   295.0000     9.8412     9.565
     44     0.9150     0.9150    -0.0850      5.601      1.000  22200.000      6.000    41.2537    81.3268   -33.4182     1.2730    -1.5670    -0.0020    -0.0010    20.6267    41.2556     1.5284    14.6405    14.6392     0.0013   295.0000     9.7810     9.530
     45     0.9200     0.9200    -0.0800      5.603      0.000  22200.000      6.000    41.2537    80.9094   -33.5885     1.2730    -1.5670    -0.0020    -0.0010    20.6267    41.2556     1.5360    14.6405    14.6392     0.0013   295.0000     9.7987     9.595
     46     0.9250     0.9250    -0.0750      5.664      0.000  22200.000      6.000    41.2537    80.4931   -33.7607     1.2730    -1.5670    -0.0020    -0.0010    20.6267    41.2556     1.5436    14.6405    14.6392     0.0013   295.0000     9.7987     9.595
     47     0.9300     0.9299    -0.0700      5.543      1.000  22200.000      6.000    41.2537    80.0846   -33.9310     1.2730    -1.5670    -0.0020    -0.0010    20.6267    41.2556     1.5512    14.6405    14.6392     0.0013   295.0000     9.7987     9.554
     48     0.9350     0.9350    -0.0650      5.649      0.000  22200.000      6.000    41.2537    79.6762   -34.1072     1.2730    -1.5670    -0.0020    -0.0010    20.6267    41.2556     1.5590    14.6405    14.6392     0.0013   295.0000     9.7986     9.498
     49     0.9400     0.9400    -0.0600      5.612      0.000  22200.000      6.000    41.2537    79.2677   -34.2824     1.2730    -1.5670    -0.0020    -0.0010    20.6267    41.2556     1.5668    14.6405    14.6392     0.0013   295.0000     9.8039     9.580
     50     0.9451     0.9450    -0.0550      5.630      1.000  22200.000      6.000    41.2537    78.8671   -34.4595     1.2730    -1.5670    -0.0020    -0.0010    20.6267    41.2556     1.5746    14.6405    14.6392     0.0013   295.0000     9.8039     9.580
     51     0.9501     0.9500    -0.0500      5.656      1.000  22200.000      6.000    41.2537    78.4646   -34.6367     1.2730    -1.5670    -0.0020    -0.0010    20.6267    41.2556     1.5825    14.6405    14.6392     0.0013   295.0000     9.8077     9.575
     52     0.9550     0.9549    -0.0450      5.592      3.000  22200.000      6.000    41.2537    78.0669   -34.8139     1.2730    -1.5670    -0.0020    -0.0010    20.6267    41.2556     1.5903    14.6405    14.6392     0.0013   295.0000     9.8099     9.566
     53     0.9600     0.9599    -0.0400      5.596      2.000  22200.000      6.000    41.2537    77.6693   -34.9940     1.2730    -1.5670    -0.0020    -0.0010    20.6267    41.2556     1.5983    14.6405    14.6392     0.0013   295.0000     9.8112     9.594
     54     0.9651     0.9650    -0.0350      5.673      1.000  22200.000      6.000    41.2537    77.2756   -35.1761     1.2730    -1.5670    -0.0020    -0.0010    20.6267    41.2556     1.6064    14.6405    14.6392     0.0013   295.0000     9.8112     9.594
     55     0.9700     0.9700    -0.0301      5.619      2.000  22200.000      6.000    41.2537    76.8888   -35.3572     1.2730    -1.5670    -0.0020    -0.0010    20.6267    41.2556     1.6144    14.6405    14.6392     0.0013   295.0000     9.8475     9.573
     56     0.9750     0.9749    -0.0250      5.673      0.000  22200.000      6.000    41.2537    76.4951   -35.5393     1.2730    -1.5670    -0.0020    -0.0010    20.6267    41.2556     1.6224    14.6405    14.6392     0.0013   295.0000     9.8077     9.511
     57     0.9801     0.9800    -0.0200      5.662      0.000  22200.000      6.000    41.2537    76.1102   -35.7263     1.2730    -1.5670    -0.0020    -0.0010    20.6267    41.2556     1.6307    14.6405    14.6392     0.0013   295.0000     9.8137     9.602
     58     0.9850     0.9849    -0.0150      5.590      1.000  22200.000      6.000    41.2537    75.7274   -35.9083     1.2730    -1.5670    -0.0020    -0.0010    20.6267    41.2556     1.6387    14.6405    14.6392     0.0013   295.0000     9.8137     9.602
     59     0.9900     0.9899    -0.0100      5.613     11.000  22200.000      6.000    41.2537    75.3465   -36.0954     1.2730    -1.5670    -0.0020    -0.0010    20.6267    41.2556     1.6470    14.6405    14.6392     0.0013   295.0000     9.8184     9.572
     60     0.9950     0.9950    -0.0050      5.587    158.000  22200.000      6.000    41.2537    74.9675   -36.2833     1.2730    -1.5670    -0.0020    -0.0010    20.6267    41.2556     1.6552    14.6405    14.6392     0.0013   295.0000     9.8233     9.573
     61     1.0000     1.0000     0.0000      5.627   1521.000  22200.000      6.000    41.2537    74.5886   -36.4713     1.2730    -1.5670    -0.0020    -0.0010    20.6267    41.2556     1.6635    14.6405    14.6392     0.0013   295.0000     9.8261     9.550
     62     1.0051     1.0050     0.0050      5.590    208.000  22200.000      6.000    41.2537    74.2156   -36.6613     1.2730    -1.5670    -0.0020    -0.0010    20.6267    41.2556     1.6719    14.6405    14.6392     0.0013   295.0000     9.8261     9.550
     63     1.0100     1.0099     0.0099      5.588      4.000  22200.000      6.000    41.2537    73.8465   -36.8493     1.2730    -1.5670    -0.0020    -0.0010    20.6267    41.2556     1.6802    14.6405    14.6392     0.0013   295.0000     9.8289     9.589
     64     1.0150     1.0149     0.0150      5.557      0.000  22200.000      6.000    41.2537    73.4724   -37.0412     1.2730    -1.5670    -0.0020    -0.0010    20.6267    41.2556     1.6886    14.6405    14.6392     0.0013   295.0000     9.8233     9.522
     65     1.0201     1.0200     0.0200      5.608      1.000  22200.000      6.000    41.2537    73.1063   -37.2361     1.2730    -1.5670    -0.0020    -0.0010    20.6267    41.2556     1.6972    14.6405    14.6392     0.0013   295.0000     9.8274     9.601
     66     1.0250     1.0249     0.0250      5.547      0.000  22200.000      6.000    41.2537    72.7402   -37.4261     1.2730    -1.5670    -0.0020    -0.0010    20.6267    41.2556     1.7055    14.6405    14.6392     0.0013   295.0000     9.8274     9.601
     67     1.0301     1.0300     0.0300      5.694      1.000  22200.000      6.000    41.2537    72.3760   -37.6229     1.2730    -1.5670    -0.0020    -0.0010    20.6267    41.2556     1.7142    14.6405    14.6392     0.0013   295.0000     9.8287     9.526
     68     1.0350     1.0349     0.0350      5.646      1.000  22200.000      6.000    41.2537    72.0157   -37.8158     1.2730    -1.5670    -0.0020    -0.0010    20.6267    41.2556     1.7227    14.6405    14.6392     0.0013   295.0000     9.8285     9.579
     69     1.0400     1.0399     0.0400      5.611      1.000  22200.000      6.000    41.2537    71.6555   -38.0127     1.2730    -1.5670    -0.0020    -0.0010    20.6267    41.2556     1.7313    14.6405    14.6392     0.0013   295.0000     9.8314     9.614
     70     1.0451     1.0450     0.0450      5.705      0.000  22200.000      6.000    41.2537    71.2992   -38.2105     1.2730    -1.5670    -0.0020    -0.0010    20.6267    41.2556     1.7400    14.6405    14.6392     0.0013   295.0000     9.8314     9.614
     71     1.0500     1.0499     0.0500      5.600      0.000  22200.000      6.000    41.2537    70.9478   -38.4064     1.2730    -1.5670    -0.0020    -0.0010    20.6267    41.2556     1.7486    14.6405    14.6392     0.0013   295.0000     9.8466     9.572
     72     1.0551     1.0550     0.0550      5.573      1.000  22200.000      6.000    41.2537    70.5925   -38.6101     1.2730    -1.5670    -0.0020    -0.0010    20.6267    41.2556     1.7575    14.6405    14.6392     0.0013   295.0000     9.8330     9.540
     73     1.0601     1.0600     0.0600      5.545      1.000  22200.000      6.000    41.2537    70.2402   -38.8070     1.2730    -1.5670    -0.0020    -0.0010    20.6267    41.2556     1.7661    14.6405    14.6392     0.0013   295.0000     9.8301     9.610
     74     1.0650     1.0649     0.0650      5.597      1.000  22200.000      6.000    41.2537    69.8937   -39.0058     1.2730    -1.5670    -0.0020    -0.0010    20.6267    41.2556     1.7748    14.6405    14.6392     0.0013   295.0000     9.8301     9.610
     75     1.0701     1.0700     0.0700      5.644      0.000  22200.000      6.000    41.2537    69.5463   -39.2095     1.2730    -1.5670    -0.0020    -0.0010    20.6267    41.2556     1.7837    14.6405    14.6392     0.0013   295.0000     9.8303     9.572
     76     1.0750     1.0749     0.0750      5.601      2.000  22200.000      6.000    41.2537    69.2047   -39.4103     1.2730    -1.5670    -0.0020    -0.0010    20.6267    41.2556     1.7925    14.6405    14.6392     0.0013   295.0000     9.8328     9.535
     77     1.0800     1.0800     0.0800      5.607      0.000  22200.000      6.000    41.2537    68.8602   -39.6141     1.2730    -1.5670    -0.0020    -0.0010    20.6267    41.2556     1.8014    14.6405    14.6392     0.0013   295.0000     9.8322     9.557
     78     1.0850     1.0849     0.0850      5.582      1.000  22200.000      6.000    41.2537    68.5177   -39.8178     1.2730    -1.5670    -0.0020    -0.0010    20.6267    41.2556     1.8103    14.6405    14.6392     0.0013   295.0000     9.8322     9.557
     79     1.0900     1.0899     0.0900      5.593      1.000  22200.000      6.000    41.2537    68.1801   -40.0206     1.2730    -1.5670    -0.0020    -0.0010    20.6267    41.2556     1.8191    14.6405    14.6392     0.0013   295.0000     9.8486     9.575
     80     1.0951     1.0950     0.0949      5.623      2.000  22200.000      6.000    41.2537    67.8455   -40.2302     1.2730    -1.5670    -0.0020    -0.0010    20.6267    41.2556     1.8282    14.6405    14.6392     0.0013   295.0000     9.8330     9.590
     81     1.1000     1.0999     0.1000      5.547      0.000  22200.000      6.000    41.2537    67.5089   -40.4349     1.2730    -1.5670    -0.0020    -0.0010    20.6267    41.2556     1.8371    14.6405    14.6392     0.0013   295.0000     9.8415     9.611
     82     1.1050     1.1050     0.1050      5.555      1.000  22200.000      6.000    41.2537    67.1752   -40.6426     1.2730    -1.5670    -0.0020    -0.0010    20.6267    41.2556     1.8462    14.6405    14.6392     0.0013   295.0000     9.8415     9.611
     83     1.1100     1.1099     0.1100      5.567      1.000  22200.000      6.000    41.2537    66.8455   -40.8503     1.2730    -1.5670    -0.0020    -0.0010    20.6267    41.2556     1.8552    14.6405    14.6392     0.0013   295.0000     9.8467     9.588
     84     1.1150     1.1149     0.1150      5.547      0.000  22200.000      6.000    41.2537    66.5148   -41.0589     1.2730    -1.5670    -0.0020    -0.0010    20.6267    41.2556     1.8643    14.6405    14.6392     0.0013   295.0000     9.8501     9.581
     85     1.1201     1.1200     0.1199      5.529      0.000  22200.000      6.000    41.2537    66.1890   -41.2706     1.2730    -1.5670    -0.0020    -0.0010    20.6267    41.2556     1.8735    14.6405    14.6392     0.0013   295.0000     9.8484     9.618
     86     1.1250     1.1249     0.1250      5.609      1.000  22200.000      6.000    41.2537    65.8612   -41.4782     1.2730    -1.5670    -0.0020    -0.0010    20.6267    41.2556     1.8825    14.6405    14.6392     0.0013   295.0000     9.8484     9.618
     87     1.1301     1.1300     0.1300      5.642      0.000  22200.000      6.000    41.2537    65.5354   -41.6928     1.2730    -1.5670    -0.0020    -0.0010    20.6267    41.2556     1.8918    14.6405    14.6392     0.0013   295.0000     9.8412     9.578
     88     1.1350     1.1349     0.1350      5.700      1.000  22200.000      6.000    41.2537    65.2146   -41.9024     1.2730    -1.5670    -0.0020    -0.0010    20.6267    41.2556     1.9009    14.6405    14.6392     0.0013   295.0000     9.8591     9.563
     89     1.1401     1.1400     0.1399      5.567      2.000  22200.000      6.000    41.2537    64.8967   -42.1170     1.2730    -1.5670    -0.0020    -0.0010    20.6267    41.2556     1.9102    14.6405    14.6392     0.0013   295.0000     9.8546     9.576
     90     1.1450     1.1449     0.1450      5.664      1.000  22200.000      6.000    41.2537    64.5738   -42.3296     1.2730    -1.5670    -0.0020    -0.0010    20.6267    41.2556     1.9194    14.6405    14.6392     0.0013   295.0000     9.8546     9.576
     91     1.1500     1.1499     0.1500      5.706      1.000  22200.000      6.000    41.2537    64.2559   -42.5442     1.2730    -1.5670    -0.0020    -0.0010    20.6267    41.2556     1.9287    14.6405    14.6392     0.0013   295.0000     9.8460     9.588
     92     1.1551     1.1550     0.1550      5.600      1.000  22200.000      6.000    41.2537    63.9429   -42.7607     1.2730    -1.5670    -0.0020    -0.0010    20.6267    41.2556     1.9380    14.6405    14.6392     0.0013   295.0000     9.8529     9.580
     93     1.1600     1.1599     0.1600      5.657      0.000  22200.000      6.000    41.2537    63.6270   -42.9743     1.2730    -1.5670    -0.0020    -0.0010    20.6267    41.2556     1.9472    14.6405    14.6392     0.0013   295.0000     9.8572     9.578
     94     1.1651     1.1650     0.1649      5.648      0.000  22200.000      6.000    41.2537    63.3169   -43.1928     1.2730    -1.5670    -0.0020    -0.0010    20.6267    41.2556     1.9567    14.6405    14.6392     0.0013   295.0000     9.8572     9.578
     95     1.1700     1.1699     0.1700      5.564      0.000  22200.000      6.000    41.2537    63.0030   -43.4083     1.2730    -1.5670    -0.0020    -0.0010    20.6267    41.2556     1.9660    14.6405    14.6392     0.0013   295.0000     9.8401     9.585
     96     1.1750     1.1749     0.1750      5.620      0.000  22200.000      6.000    41.2537    62.6939   -43.6269     1.2730    -1.5670    -0.0020    -0.0010    20.6267    41.2556     1.9754    14.6405    14.6392     0.0013   295.0000     9.8513     9.557
     97     1.1800     1.1799     0.1800      5.644      0.000  22200.000      6.000    41.2537    62.3848   -43.8463     1.2730    -1.5670    -0.0020    -0.0010    20.6267    41.2556     1.9848    14.6405    14.6392     0.0013   295.0000     9.8575     9.616
     98     1.1850     1.1849     0.1850      5.693      2.000  22200.000      6.000    41.2537    62.0787   -44.0658     1.2730    -1.5670    -0.0020    -0.0010    20.6267    41.2556     1.9943    14.6405    14.6392     0.0013   295.0000     9.8575     9.616
     99     1.1900     1.1899     0.1900      5.646      0.000  22200.000      6.000    41.2537    61.7766   -44.2863     1.2730    -1.5670    -0.0020    -0.0010    20.6267    41.2556     2.0037    14.6405    14.6392     0.0013   295.0000     9.8368     9.582
    100     1.1950     1.1949     0.1950      5.715      0.000  22200.000      6.000    41.2537    61.4705   -44.5068     1.2730    -1.5670    -0.0020    -0.0010    20.6267    41.2556     2.0132    14.6405    14.6392     0.0013   295.0000     9.8623     9.583
    101     1.2001     1.2000     0.1999      5.606      0.000  22200.000      6.000    41.2537    61.1713   -44.7312     1.2730    -1.5670    -0.0020    -0.0010    20.6267    41.2556     2.0228    14.6405    14.6392     0.0013   295.0000     9.8637     9.604
    102     1.2050     1.2049     0.2050      5.673      0.000  22200.000      6.000    41.2537    60.8691   -44.9507     1.2730    -1.5670    -0.0020    -0.0010    20.6267    41.2556     2.0323    14.6405    14.6392     0.0013   295.0000     9.8637     9.604
    103     1.2100     1.2099     0.2100      5.647      0.000  22200.000      6.000    41.2537    60.5689   -45.1751     1.2730    -1.5670    -0.0020    -0.0010    20.6267    41.2556     2.0419    14.6405    14.6392     0.0013   295.0000     9.8652     9.601
    104     1.2150     1.2149     0.2150      5.614      0.000  22200.000      6.000    41.2537    60.2717   -45.3985     1.2730    -1.5670    -0.0020    -0.0010    20.6267    41.2556     2.0514    14.6405    14.6392     0.0013   295.0000     9.8591     9.589
    105     1.2201     1.2200     0.2200      5.572      1.000  22200.000      6.000    41.2537    59.9764   -45.6239     1.2730    -1.5670    -0.0020    -0.0010    20.6267    41.2556     2.0611    14.6405    14.6392     0.0013   295.0000     9.8647     9.615
    106     1.2250     1.2249     0.2250      5.649      1.000  22200.000      6.000    41.2537    59.6811   -45.8473     1.2730    -1.5670    -0.0020    -0.0010    20.6267    41.2556     2.0706    14.6405    14.6392     0.0013   295.0000     9.8647     9.615
    107     1.2301     1.2300     0.2300      5.687      0.000  22200.000      6.000    41.2537    59.3858   -46.0767     1.2730    -1.5670    -0.0020    -0.0010    20.6267    41.2556     2.0804    14.6405    14.6392     0.0013   295.0000     9.8213     9.566
    108     1.2351     1.2350     0.2350      5.648      2.000  22200.000      6.000    41.2537    59.0965   -46.3030     1.2730    -1.5670    -0.0020    -0.0010    20.6267    41.2556     2.0901    14.6405    14.6392     0.0013   295.0000     9.8517     9.559
    109     1.2400     1.2399     0.2400      5.629      3.000  22200.000      6.000    41.2537    58.8061   -46.5274     1.2730    -1.5670    -0.0020    -0.0010    20.6267    41.2556     2.0997    14.6405    14.6392     0.0013   295.0000     9.8592     9.617
    110     1.2450     1.2449     0.2450      5.640      1.000  22200.000      6.000    41.2537    58.5138   -46.7558     1.2730    -1.5670    -0.0020    -0.0010    20.6267    41.2556     2.1094    14.6405    14.6392     0.0013   295.0000     9.8592     9.617
    111     1.2500     1.2499     0.2500      5.578      4.000  22200.000      6.000    41.2537    58.2264   -46.9841     1.2730    -1.5670    -0.0020    -0.0010    20.6267    41.2556     2.1191    14.6405    14.6392     0.0013   295.0000     9.8279     9.594
    112     1.2551     1.2549     0.2550      5.580      4.000  22200.000      6.000    41.2537    57.9400   -47.2135     1.2730    -1.5670    -0.0020    -0.0010    20.6267    41.2556     2.1289    14.6405    14.6392     0.0013   295.0000     9.8515     9.562
    113     1.2600     1.2599     0.2600      5.635      4.000  22200.000      6.000    41.2537    57.6535   -47.4428     1.2730    -1.5670    -0.0020    -0.0010    20.6267    41.2556     2.1386    14.6405    14.6392     0.0013   295.0000     9.8612     9.605
    114     1.2651     1.2650     0.2650      5.613      2.000  22200.000      6.000    41.2537    57.3691   -47.6751     1.2730    -1.5670    -0.0020    -0.0010    20.6267    41.2556     2.1485    14.6405    14.6392     0.0013   295.0000     9.8612     9.605
    115     1.2700     1.2699     0.2700      5.542      2.000  22200.000      6.000    41.2537    57.0876   -47.9034     1.2730    -1.5670    -0.0020    -0.0010    20.6267    41.2556     2.1581    14.6405    14.6392     0.0013   295.0000     9.8555     9.585
    116     1.2751     1.2749     0.2750      5.675      2.000  22200.000      6.000    41.2537    56.8031   -48.1367     1.2730    -1.5670    -0.0020    -0.0010    20.6267    41.2556     2.1680    14.6405    14.6392     0.0013   295.0000     9.8569     9.574
    117     1.2800     1.2799     0.2800      5.660      2.000  22200.000      6.000    41.2537    56.5217   -48.3690     1.2730    -1.5670    -0.0020    -0.0010    20.6267    41.2556     2.1779    14.6405    14.6392     0.0013   295.0000     9.8585     9.591
    118     1.2851     1.2850     0.2850      5.718      1.000  22200.000      6.000    41.2537    56.2431   -48.6022     1.2730    -1.5670    -0.0020    -0.0010    20.6267    41.2556     2.1877    14.6405    14.6392     0.0013   295.0000     9.8585     9.591
    119     1.2901     1.2900     0.2899      5.635      3.000  22200.000      6.000    41.2537    55.9665   -48.8355     1.2730    -1.5670    -0.0020    -0.0010    20.6267    41.2556     2.1976    14.6405    14.6392     0.0013   295.0000     9.8184     9.566
    120     1.2950     1.2949     0.2950      5.609      0.000  22200.000      6.000    41.2537    55.6860   -49.0688     1.2730    -1.5670    -0.0020    -0.0010    20.6267    41.2556     2.2074    14.6405    14.6392     0.0013   295.0000     9.8587     9.586
    121     1.3001     1.3000     0.3000      5.610      2.000  22200.000      6.000    41.2537    55.4085   -49.3070     1.2730    -1.5670    -0.0020    -0.0010    20.6267    41.2556     2.2175    14.6405    14.6392     0.0013   295.0000     9.8571     9.603
    122     1.3050     1.3049     0.3050      5.627      0.000  22200.000      6.000    41.2537    55.1348   -49.5393     1.2730    -1.5670    -0.0020    -0.0010    20.6267    41.2556     2.2273    14.6405    14.6392     0.0013   295.0000     9.8571     9.603
    123     1.3101     1.3100     0.3100      5.618      1.000  22200.000      6.000    41.2537    54.8612   -49.7765     1.2730    -1.5670    -0.0020    -0.0010    20.6267    41.2556     2.2373    14.6405    14.6392     0.0013   295.0000     9.8109     9.569
    124     1.3151     1.3149     0.3150      5.629      1.000  22200.000      6.000    41.2537    54.5886   -50.0127     1.2730    -1.5670    -0.0020    -0.0010    20.6267    41.2556     2.2472    14.6405    14.6392     0.0013   295.0000     9.8541     9.586
    125     1.3201     1.3200     0.3200      5.603      1.000  22200.000      6.000    41.2537    54.3150   -50.2519     1.2730    -1.5670    -0.0020    -0.0010    20.6267    41.2556     2.2572    14.6405    14.6392     0.0013   295.0000     9.8525     9.582
    126     1.3250     1.3249     0.3250      5.616      1.000  22200.000      6.000    41.2537    54.0453   -50.4871     1.2730    -1.5670    -0.0020    -0.0010    20.6267    41.2556     2.2671    14.6405    14.6392     0.0013   295.0000     9.8525     9.582
    127     1.3301     1.3300     0.3300      5.629      0.000  22200.000      6.000    41.2537    53.7746   -50.7282     1.2730    -1.5670    -0.0020    -0.0010    20.6267    41.2556     2.2772    14.6405    14.6392     0.0013   295.0000     9.8548     9.566
    128     1.3350     1.3349     0.3350      5.630      1.000  22200.000      6.000    41.2537    53.5039   -50.9645     1.2730    -1.5670    -0.0020    -0.0010    20.6267    41.2556     2.2871    14.6405    14.6392     0.0013   295.0000     9.8416     9.530
    129     1.3401     1.3400     0.3400      5.582      2.000  22200.000      6.000    41.2537    53.2382   -51.2066     1.2730    -1.5670    -0.0020    -0.0010    20.6267    41.2556     2.2973    14.6405    14.6392     0.0013   295.0000     9.8444     9.567
    130     1.3450     1.3449     0.3450      5.617      1.000  22200.000      6.000    41.2537    52.9715   -51.4458     1.2730    -1.5670    -0.0020    -0.0010    20.6267    41.2556     2.3073    14.6405    14.6392     0.0013   295.0000     9.8444     9.567
    131     1.3501     1.3500     0.3500      5.613      2.000  22200.000      6.000    41.2537    52.7047   -51.6889     1.2730    -1.5670    -0.0020    -0.0010    20.6267    41.2556     2.3174    14.6405    14.6392     0.0013   295.0000     9.8461     9.575
    132     1.3550     1.3549     0.3550      5.660      2.000  22200.000      6.000    41.2537    52.4390   -51.9270     1.2730    -1.5670    -0.0020    -0.0010    20.6267    41.2556     2.3274    14.6405    14.6392     0.0013   295.0000     9.8460     9.573
    133     1.3601     1.3600     0.3600      5.650      2.000  22200.000      6.000    41.2537    52.1752   -52.1721     1.2730    -1.5670    -0.0020    -0.0010    20.6267    41.2556     2.3376    14.6405    14.6392     0.0013   295.0000     9.8408     9.576
    134     1.3650     1.3649     0.3650      5.698      1.000  22200.000      6.000    41.2537    51.9104   -52.4133     1.2730    -1.5670    -0.0020    -0.0010    20.6267    41.2556     2.3476    14.6405    14.6392     0.0013   295.0000     9.8408     9.576
    135     1.3701     1.3699     0.3700      5.625      0.000  22200.000      6.000    41.2537    51.6496   -52.6574     1.2730    -1.5670    -0.0020    -0.0010    20.6267    41.2556     2.3578    14.6405    14.6392     0.0013   295.0000     9.7817     9.572
    136     1.3750     1.3749     0.3750      5.586      0.000  22200.000      6.000    41.2537    51.3888   -52.9005     1.2730    -1.5670    -0.0020    -0.0010    20.6267    41.2556     2.3679    14.6405    14.6392     0.0013   295.0000     9.8407     9.597
    137     1.3801     1.3800     0.3799      5.579      1.000  22200.000      6.000    41.2537    51.1299   -53.1465     1.2730    -1.5670    -0.0020    -0.0010    20.6267    41.2556     2.3781    14.6405    14.6392     0.0013   295.0000     9.8382     9.577
    138     1.3850     1.3849     0.3850      5.573      1.000  22200.000      6.000    41.2537    50.8681   -53.3896     1.2730    -1.5670    -0.0020    -0.0010    20.6267    41.2556     2.3882    14.6405    14.6392     0.0013   295.0000     9.8382     9.577
    139     1.3902     1.3900     0.3900      5.661      0.000  22200.000      6.000    41.2537    50.6083   -53.6406     1.2730    -1.5670    -0.0020    -0.0010    20.6267    41.2556     2.3986    14.6405    14.6392     0.0013   295.0000     9.8378     9.583
    140     1.3950     1.3949     0.3950      5.563      3.000  22200.000      6.000    41.2537    50.3504   -53.8828     1.2730    -1.5670    -0.0020    -0.0010    20.6267    41.2556     2.4086    14.6405    14.6392     0.0013   295.0000     9.8309     9.586
    141     1.4001     1.3999     0.4000      5.675      0.000  22200.000      6.000    41.2537    50.0955   -54.1298     1.2730    -1.5670    -0.0020    -0.0010    20.6267    41.2556     2.4188    14.6405    14.6392     0.0013   295.0000     9.8286     9.580
    142     1.4050     1.4049     0.4050      5.643      0.000  22200.000      6.000    41.2537    49.8386   -54.3769     1.2730    -1.5670    -0.0020    -0.0010    20.6267    41.2556     2.4290    14.6405    14.6392     0.0013   295.0000     9.8286     9.580
    143     1.4101     1.4099     0.4100      5.569      1.000  22200.000      6.000    41.2537    49.5827   -54.6259     1.2730    -1.5670    -0.0020    -0.0010    20.6267    41.2556     2.4393    14.6405    14.6392     0.0013   295.0000     9.7638     9.583
    144     1.4151     1.4150     0.4150      5.656      2.000  22200.000      6.000    41.2537    49.3278   -54.8749     1.2730    -1.5670    -0.0020    -0.0010    20.6267    41.2556     2.4495    14.6405    14.6392     0.0013   295.0000     9.8219     9.568
    145     1.4201     1.4199     0.4199      5.584      0.000  22200.000      6.000    41.2537    49.0768   -55.1229     1.2730    -1.5670    -0.0020    -0.0010    20.6267    41.2556     2.4597    14.6405    14.6392     0.0013   295.0000     9.8171     9.569
    146     1.4251     1.4250     0.4250      5.581      1.000  22200.000      6.000    41.2537    48.8219   -55.3739     1.2730    -1.5670    -0.0020    -0.0010    20.6267    41.2556     2.4701    14.6405    14.6392     0.0013   295.0000     9.7517     9.540
    147     1.4301     1.4299     0.4300      5.577      0.000  22200.000      6.000    41.2537    48.5699   -55.6239     1.2730    -1.5670    -0.0020    -0.0010    20.6267    41.2556     2.4803    14.6405    14.6392     0.0013   295.0000     9.7517     9.540
    148     1.4351     1.4349     0.4350      5.530      1.000  22200.000      6.000    41.2537    48.3179   -55.8749     1.2730    -1.5670    -0.0020    -0.0010    20.6267    41.2556     2.4906    14.6405    14.6392     0.0013   295.0000     9.8158     9.567
    149     1.4401     1.4400     0.4399      5.688      1.000  22200.000      6.000    41.2537    48.0689   -56.1269     1.2730    -1.5670    -0.0020    -0.0010    20.6267    41.2556     2.5009    14.6405    14.6392     0.0013   295.0000     9.8161     9.567
    150     1.4450     1.4449     0.4450      5.593      2.000  22200.000      6.000    41.2537    47.8169   -56.3778     1.2730    -1.5670    -0.0020    -0.0010    20.6267    41.2556     2.5112    14.6405    14.6392     0.0013   295.0000     9.7499     9.561
    151     1.4501     1.4499     0.4500      5.604      4.000  22200.000      6.000    41.2537    47.5669   -56.6318     1.2730    -1.5670    -0.0020    -0.0010    20.6267    41.2556     2.5216    14.6405    14.6392     0.0013   295.0000     9.7499     9.561
    152     1.4550     1.4549     0.4550      5.603      1.000  22200.000      6.000    41.2537    47.3179   -56.8847     1.2730    -1.5670    -0.0020    -0.0010    20.6267    41.2556     2.5319    14.6405    14.6392     0.0013   295.0000     9.8156     9.572
    153     1.4601     1.4600     0.4599      5.693      0.000  22200.000      6.000    41.2537    47.0738   -57.1387     1.2730    -1.5670    -0.0020    -0.0010    20.6267    41.2556     2.5423    14.6405    14.6392     0.0013   295.0000     9.8134     9.570
    154     1.4651     1.4650     0.4649      5.661      0.000  22200.000      6.000    41.2537    46.8258   -57.3946     1.2730    -1.5670    -0.0020    -0.0010    20.6267    41.2556     2.5527    14.6405    14.6392     0.0013   295.0000     9.8227     9.577
    155     1.4701     1.4699     0.4700      5.633      0.000  22200.000      6.000    41.2537    46.5768   -57.6485     1.2730    -1.5670    -0.0020    -0.0010    20.6267    41.2556     2.5630    14.6405    14.6392     0.0013   295.0000     9.8227     9.577
    156     1.4750     1.4749     0.4750      5.672      0.000  22200.000      6.000    41.2537    46.3307   -57.9034     1.2730    -1.5670    -0.0020    -0.0010    20.6267    41.2556     2.5734    14.6405    14.6392     0.0013   295.0000     9.8125     9.583
    157     1.4801     1.4800     0.4800      5.687      0.000  22200.000      6.000    41.2537    46.0866   -58.1613     1.2730    -1.5670    -0.0020    -0.0010    20.6267    41.2556     2.5838    14.6405    14.6392     0.0013   295.0000     9.8104     9.588
    158     1.4850     1.4849     0.4850      5.668      2.000  22200.000      6.000    41.2537    45.8415   -58.4162     1.2730    -1.5670    -0.0020    -0.0010    20.6267    41.2556     2.5941    14.6405    14.6392     0.0013   295.0000     9.7398     9.536
    159     1.4901     1.4900     0.4900      5.610     19.000  22200.000      6.000    41.2537    45.5994   -58.6761     1.2730    -1.5670    -0.0020    -0.0010    20.6267    41.2556     2.6047    14.6405    14.6392     0.0013   295.0000     9.7398     9.536
    160     1.4950     1.4949     0.4950      5.663    168.000  22200.000      6.000    41.2537    45.3553   -58.9320     1.2730    -1.5670    -0.0020    -0.0010    20.6267    41.2556     2.6150    14.6405    14.6392     0.0013   295.0000     9.8088     9.571
    161     1.5001     1.5000     0.4999      5.590    294.000  22200.000      6.000    41.2537    45.1142   -59.1918     1.2730    -1.5670    -0.0020    -0.0010    20.6267    41.2556     2.6255    14.6405    14.6392     0.0013   295.0000     9.8129     9.530
    162     1.5050     1.5049     0.5050      5.564    163.000  22200.000      6.000    41.2537    44.8701   -59.4497     1.2730    -1.5670    -0.0020    -0.0010    20.6267    41.2556     2.6359    14.6405    14.6392     0.0013   295.0000     9.8155     9.582
    163     1.5101     1.5100     0.5100      5.646     17.000  22200.000      6.000    41.2537    44.6280   -59.7125     1.2730    -1.5670    -0.0020    -0.0010    20.6267    41.2556     2.6465    14.6405    14.6392     0.0013   295.0000     9.8155     9.582
    164     1.5150     1.5149     0.5150      5.634      4.000  22200.000      6.000    41.2537    44.3868   -59.9694     1.2730    -1.5670    -0.0020    -0.0010    20.6267    41.2556     2.6568    14.6405    14.6392     0.0013   295.0000     9.8172     9.601
    165     1.5201     1.5200     0.5200      5.550      0.000  22200.000      6.000    41.2537    44.1486   -60.2322     1.2730    -1.5670    -0.0020    -0.0010    20.6267    41.2556     2.6674    14.6405    14.6392     0.0013   295.0000     9.8192     9.577
    166     1.5251     1.5250     0.5249      5.618      0.000  22200.000      6.000    41.2537    43.9094   -60.4950     1.2730    -1.5670    -0.0020    -0.0010    20.6267    41.2556     2.6779    14.6405    14.6392     0.0013   295.0000     9.7462     9.534
    167     1.5301     1.5299     0.5300      5.544      1.000  22200.000      6.000    41.2537    43.6703   -60.7548     1.2730    -1.5670    -0.0020    -0.0010    20.6267    41.2556     2.6883    14.6405    14.6392     0.0013   295.0000     9.8237     9.609
    168     1.5351     1.5350     0.5350      5.641      1.000  22200.000      6.000    41.2537    43.4291   -61.0206     1.2730    -1.5670    -0.0020    -0.0010    20.6267    41.2556     2.6989    14.6405    14.6392     0.0013   295.0000     9.8237     9.609
    169     1.5401     1.5400     0.5400      5.629      0.000  22200.000      6.000    41.2537    43.1919   -61.2843     1.2730    -1.5670    -0.0020    -0.0010    20.6267    41.2556     2.7095    14.6405    14.6392     0.0013   295.0000     9.8226     9.543
    170     1.5450     1.5449     0.5450      5.616      0.000  22200.000      6.000    41.2537    42.9547   -61.5432     1.2730    -1.5670    -0.0020    -0.0010    20.6267    41.2556     2.7198    14.6405    14.6392     0.0013   295.0000     9.8238     9.538
    171     1.5501     1.5499     0.5500      5.594      0.000  22200.000      6.000    41.2537    42.7175   -61.8099     1.2730    -1.5670    -0.0020    -0.0010    20.6267    41.2556     2.7304    14.6405    14.6392     0.0013   295.0000     9.8267     9.577
    172     1.5551     1.5549     0.5550      5.680      1.000  22200.000      6.000    41.2537    42.4793   -62.0757     1.2730    -1.5670    -0.0020    -0.0010    20.6267    41.2556     2.7410    14.6405    14.6392     0.0013   295.0000     9.8267     9.577
    173     1.5601     1.5600     0.5599      5.594      0.000  22200.000      6.000    41.2537    42.2470   -62.3414     1.2730    -1.5670    -0.0020    -0.0010    20.6267    41.2556     2.7515    14.6405    14.6392     0.0013   295.0000     9.8210     9.569
    174     1.5650     1.5649     0.5650      5.662      0.000  22200.000      6.000    41.2537    42.0098   -62.6062     1.2730    -1.5670    -0.0020    -0.0010    20.6267    41.2556     2.7620    14.6405    14.6392     0.0013   295.0000     9.7590     9.537
    175     1.5701     1.5699     0.5700      5.677      0.000  22200.000      6.000    41.2537    41.7736   -62.8739     1.2730    -1.5670    -0.0020    -0.0010    20.6267    41.2556     2.7726    14.6405    14.6392     0.0013   295.0000     9.8236     9.594
    176     1.5751     1.5749     0.5750      5.569      0.000  22200.000      6.000    41.2537    41.5384   -63.1416     1.2730    -1.5670    -0.0020    -0.0010    20.6267    41.2556     2.7832    14.6405    14.6392     0.0013   295.0000     9.8236     9.594
    177     1.5800     1.5799     0.5800      5.648      1.000  22200.000      6.000    41.2537    41.3061   -63.4083     1.2730    -1.5670    -0.0020    -0.0010    20.6267    41.2556     2.7938    14.6405    14.6392     0.0013   295.0000     9.8310     9.557
    178     1.5851     1.5850     0.5850      5.649      1.000  22200.000      6.000    41.2537    41.0728   -63.6800     1.2730    -1.5670    -0.0020    -0.0010    20.6267    41.2556     2.8045    14.6405    14.6392     0.0013   295.0000     9.7587     9.546
    179     1.5900     1.5899     0.5900      5.609      2.000  22200.000      6.000    41.2537    40.8406   -63.9458     1.2730    -1.5670    -0.0020    -0.0010    20.6267    41.2556     2.8149    14.6405    14.6392     0.0013   295.0000     9.8312     9.600
    180     1.5951     1.5949     0.5950      5.662      0.000  22200.000      6.000    41.2537    40.6053   -64.2184     1.2730    -1.5670    -0.0020    -0.0010    20.6267    41.2556     2.8257    14.6405    14.6392     0.0013   295.0000     9.8312     9.600
    181     1.6000     1.5999     0.6000      5.579      1.000  22200.000      6.000    41.2537    40.3730   -64.4871     1.2730    -1.5670    -0.0020    -0.0010    20.6267    41.2556     2.8362    14.6405    14.6392     0.0013   295.0000     9.8311     9.591
    182     1.6051     1.6049     0.6050      5.619      0.000  22200.000      6.000    41.2537    40.1417   -64.7587     1.2730    -1.5670    -0.0020    -0.0010    20.6267    41.2556     2.8469    14.6405    14.6392     0.0013   295.0000     9.8257     9.569
    183     1.6100     1.6099     0.6100      5.658      0.000  22200.000      6.000    41.2537    39.9114   -65.0294     1.2730    -1.5670    -0.0020    -0.0010    20.6267    41.2556     2.8575    14.6405    14.6392     0.0013   295.0000     9.8347     9.558
    184     1.6150     1.6149     0.6151      5.634      0.000  22200.000      6.000    41.2537    39.6772   -65.3030     1.2730    -1.5670    -0.0020    -0.0010    20.6267    41.2556     2.8682    14.6405    14.6392     0.0013   295.0000     9.8347     9.558
    185     1.6201     1.6200     0.6200      5.560      1.000  22200.000      6.000    41.2537    39.4488   -65.5776     1.2730    -1.5670    -0.0020    -0.0010    20.6267    41.2556     2.8789    14.6405    14.6392     0.0013   295.0000     9.8352     9.603
    186     1.6251     1.6249     0.6250      5.526      0.000  22200.000      6.000    41.2537    39.2185   -65.8493     1.2730    -1.5670    -0.0020    -0.0010    20.6267    41.2556     2.8895    14.6405    14.6392     0.0013   295.0000     9.8350     9.583
    187     1.6301     1.6299     0.6300      5.585      1.000  22200.000      6.000    41.2537    38.9882   -66.1239     1.2730    -1.5670    -0.0020    -0.0010    20.6267    41.2556     2.9002    14.6405    14.6392     0.0013   295.0000     9.8365     9.547
    188     1.6350     1.6349     0.6350      5.599      1.000  22200.000      6.000    41.2537    38.7579   -66.3985     1.2730    -1.5670    -0.0020    -0.0010    20.6267    41.2556     2.9108    14.6405    14.6392     0.0013   295.0000     9.8365     9.547
    189     1.6401     1.6400     0.6400      5.692      1.000  22200.000      6.000    41.2537    38.5285   -66.6770     1.2730    -1.5670    -0.0020    -0.0010    20.6267    41.2556     2.9216    14.6405    14.6392     0.0013   295.0000     9.8495     9.628
    190     1.6450     1.6449     0.6450      5.684      1.000  22200.000      6.000    41.2537    38.3002   -66.9477     1.2730    -1.5670    -0.0020    -0.0010    20.6267    41.2556     2.9321    14.6405    14.6392     0.0013   295.0000     9.8425     9.571
    191     1.6501     1.6500     0.6500      5.657      1.000  22200.000      6.000    41.2537    38.0728   -67.2292     1.2730    -1.5670    -0.0020    -0.0010    20.6267    41.2556     2.9430    14.6405    14.6392     0.0013   295.0000     9.8436     9.580
    192     1.6550     1.6549     0.6550      5.659      0.000  22200.000      6.000    41.2537    37.8445   -67.5028     1.2730    -1.5670    -0.0020    -0.0010    20.6267    41.2556     2.9536    14.6405    14.6392     0.0013   295.0000     9.8518     9.597
    193     1.6601     1.6599     0.6600      5.615      0.000  22200.000      6.000    41.2537    37.6161   -67.7824     1.2730    -1.5670    -0.0020    -0.0010    20.6267    41.2556     2.9643    14.6405    14.6392     0.0013   295.0000     9.8518     9.597
    194     1.6651     1.6649     0.6650      5.642      2.000  22200.000      6.000    41.2537    37.3878   -68.0609     1.2730    -1.5670    -0.0020    -0.0010    20.6267    41.2556     2.9750    14.6405    14.6392     0.0013   295.0000     9.8524     9.593
    195     1.6701     1.6699     0.6700      5.644      0.000  22200.000      6.000    41.2537    37.1614   -68.3404     1.2730    -1.5670    -0.0020    -0.0010    20.6267    41.2556     2.9858    14.6405    14.6392     0.0013   295.0000     9.8562     9.573
    196     1.6752     1.6751     0.6749      5.627      0.000  22200.000      6.000    41.2537    36.9350   -68.6249     1.2730    -1.5670    -0.0020    -0.0010    20.6267    41.2556     2.9967    14.6405    14.6392     0.0013   295.0000     9.8542     9.588
    197     1.6801     1.6799     0.6800      5.689      0.000  22200.000      6.000    41.2537    36.7077   -68.9005     1.2730    -1.5670    -0.0020    -0.0010    20.6267    41.2556     3.0072    14.6405    14.6392     0.0013   295.0000     9.8542     9.588
    198     1.6850     1.6849     0.6850      5.669      0.000  22200.000      6.000    41.2537    36.4793   -69.1820     1.2730    -1.5670    -0.0020    -0.0010    20.6267    41.2556     3.0180    14.6405    14.6392     0.0013   295.0000     9.8272     9.592
    199     1.6901     1.6899     0.6899      5.687      0.000  22200.000      6.000    41.2537    36.2569   -69.4635     1.2730    -1.5670    -0.0020    -0.0010    20.6267    41.2556     3.0287    14.6405    14.6392     0.0013   295.0000     9.8606     9.589
    200     1.6951     1.6949     0.6950      5.635      1.000  22200.000      6.000    41.2537    36.0305   -69.7459     1.2730    -1.5670    -0.0020    -0.0010    20.6267    41.2556     3.0395    14.6405    14.6392     0.0013   295.0000     9.8610     9.574
    201     1.7000     1.6999     0.7000      5.634      1.000  22200.000      6.000    41.2537    35.8041   -70.0274     1.2730    -1.5670    -0.0020    -0.0010    20.6267    41.2556     3.0502    14.6405    14.6392     0.0013   295.0000     9.8610     9.574
    202     1.7051     1.7050     0.7050      5.656      1.000  22200.000      6.000    41.2537    35.5778   -70.3148     1.2730    -1.5670    -0.0020    -0.0010    20.6267    41.2556     3.0611    14.6405    14.6392     0.0013   295.0000     9.8639     9.616
    203     1.7101     1.7099     0.7100      5.662      1.000  22200.000      6.000    41.2537    35.3533   -70.5973     1.2730    -1.5670    -0.0020    -0.0010    20.6267    41.2556     3.0718    14.6405    14.6392     0.0013   295.0000     9.8520     9.586
    204     1.7151     1.7149     0.7150      5.642      1.000  22200.000      6.000    41.2537    35.1299   -70.8828     1.2730    -1.5670    -0.0020    -0.0010    20.6267    41.2556     3.0826    14.6405    14.6392     0.0013   295.0000     9.8562     9.578
    205     1.7201     1.7199     0.7200      5.634      1.000  22200.000      6.000    41.2537    34.9055   -71.1682     1.2730    -1.5670    -0.0020    -0.0010    20.6267    41.2556     3.0934    14.6405    14.6392     0.0013   295.0000     9.8576     9.580
    206     1.7250     1.7249     0.7250      5.640      3.000  22200.000      6.000    41.2537    34.6801   -71.4536     1.2730    -1.5670    -0.0020    -0.0010    20.6267    41.2556     3.1042    14.6405    14.6392     0.0013   295.0000     9.8576     9.580
    207     1.7301     1.7299     0.7301      5.631      4.000  22200.000      6.000    41.2537    34.4537   -71.7430     1.2730    -1.5670    -0.0020    -0.0010    20.6267    41.2556     3.1150    14.6405    14.6392     0.0013   295.0000     9.8515     9.553
    208     1.7351     1.7349     0.7350      5.691      1.000  22200.000      6.000    41.2537    34.2333   -72.0294     1.2730    -1.5670    -0.0020    -0.0010    20.6267    41.2556     3.1258    14.6405    14.6392     0.0013   295.0000     9.8480     9.591
    209     1.7400     1.7399     0.7400      5.643      3.000  22200.000      6.000    41.2537    34.0089   -72.3178     1.2730    -1.5670    -0.0020    -0.0010    20.6267    41.2556     3.1366    14.6405    14.6392     0.0013   295.0000     9.8503     9.607
    210     1.7451     1.7450     0.7450      5.634      0.000  22200.000      6.000    41.2537    33.7854   -72.6091     1.2730    -1.5670    -0.0020    -0.0010    20.6267    41.2556     3.1475    14.6405    14.6392     0.0013   295.0000     9.8503     9.607
    211     1.7500     1.7499     0.7500      5.644      3.000  22200.000      6.000    41.2537    33.5620   -72.8965     1.2730    -1.5670    -0.0020    -0.0010    20.6267    41.2556     3.1583    14.6405    14.6392     0.0013   295.0000     9.8412     9.544
    212     1.7551     1.7550     0.7549      5.628      0.000  22200.000      6.000    41.2537    33.3406   -73.1898     1.2730    -1.5670    -0.0020    -0.0010    20.6267    41.2556     3.1692    14.6405    14.6392     0.0013   295.0000     9.8263     9.523
    213     1.7601     1.7599     0.7600      5.662      0.000  22200.000      6.000    41.2537    33.1171   -73.4792     1.2730    -1.5670    -0.0020    -0.0010    20.6267    41.2556     3.1800    14.6405    14.6392     0.0013   295.0000     9.8191     9.563
    214     1.7651     1.7649     0.7650      5.609      0.000  22200.000      6.000    41.2537    32.8937   -73.7725     1.2730    -1.5670    -0.0020    -0.0010    20.6267    41.2556     3.1909    14.6405    14.6392     0.0013   295.0000     9.8191     9.563
    215     1.7701     1.7699     0.7700      5.626      1.000  22200.000      6.000    41.2537    32.6703   -74.0648     1.2730    -1.5670    -0.0020    -0.0010    20.6267    41.2556     3.2017    14.6405    14.6392     0.0013   295.0000     9.8230     9.542
    216     1.7750     1.7749     0.7751      5.603      0.000  22200.000      6.000    41.2537    32.4459   -74.3582     1.2730    -1.5670    -0.0020    -0.0010    20.6267    41.2556     3.2125    14.6405    14.6392     0.0013   295.0000     9.8070     9.503
    217     1.7801     1.7800     0.7800      5.586      1.000  22200.000      6.000    41.2537    32.2264   -74.6534     1.2730    -1.5670    -0.0020    -0.0010    20.6267    41.2556     3.2234    14.6405    14.6392     0.0013   295.0000     9.8507     9.565
    218     1.7851     1.7849     0.7850      5.630      2.000  22200.000      6.000    41.2537    32.0039   -74.9467     1.2730    -1.5670    -0.0020    -0.0010    20.6267    41.2556     3.2343    14.6405    14.6392     0.0013   295.0000     9.8043     9.553
    219     1.7901     1.7899     0.7900      5.661      0.000  22200.000      6.000    41.2537    31.7815   -75.2430     1.2730    -1.5670    -0.0020    -0.0010    20.6267    41.2556     3.2451    14.6405    14.6392     0.0013   295.0000     9.8043     9.553
    220     1.7950     1.7949     0.7950      5.641      0.000  22200.000      6.000    41.2537    31.5591   -75.5383     1.2730    -1.5670    -0.0020    -0.0010    20.6267    41.2556     3.2560    14.6405    14.6392     0.0013   295.0000     9.7951     9.481
    221     1.8001     1.7999     0.8000      5.628      0.000  22200.000      6.000    41.2537    31.3386   -75.8375     1.2730    -1.5670    -0.0020    -0.0010    20.6267    41.2556     3.2669    14.6405    14.6392     0.0013   295.0000     9.7865     9.538
    222     1.8052     1.8050     0.8050      5.618      0.000  22200.000      6.000    41.2537    31.1171   -76.1377     1.2730    -1.5670    -0.0020    -0.0010    20.6267    41.2556     3.2779    14.6405    14.6392     0.0013   295.0000     9.7880     9.575
    223     1.8100     1.8099     0.8100      5.642      2.000  22200.000      6.000    41.2537    30.8957   -76.4320     1.2730    -1.5670    -0.0020    -0.0010    20.6267    41.2556     3.2887    14.6405    14.6392     0.0013   295.0000     9.7880     9.575
    224     1.8151     1.8149     0.8150      5.631      0.000  22200.000      6.000    41.2537    30.6722   -76.7332     1.2730    -1.5670    -0.0020    -0.0010    20.6267    41.2556     3.2996    14.6405    14.6392     0.0013   295.0000     9.7808     9.504
    225     1.8200     1.8199     0.8200      5.617      0.000  22200.000      6.000    41.2537    30.4518   -77.0314     1.2730    -1.5670    -0.0020    -0.0010    20.6267    41.2556     3.3105    14.6405    14.6392     0.0013   295.0000     9.8366     9.546
    226     1.8251     1.8249     0.8250      5.599      0.000  22200.000      6.000    41.2537    30.2313   -77.3335     1.2730    -1.5670    -0.0020    -0.0010    20.6267    41.2556     3.3214    14.6405    14.6392     0.0013   295.0000     9.7641     9.495
    227     1.8301     1.8299     0.8300      5.608      0.000  22200.000      6.000    41.2537    30.0108   -77.6357     1.2730    -1.5670    -0.0020    -0.0010    20.6267    41.2556     3.3324    14.6405    14.6392     0.0013   295.0000     9.7641     9.495
    228     1.8350     1.8348     0.8351      5.699      0.000  22200.000      6.000    41.2537    29.7874   -77.9359     1.2730    -1.5670    -0.0020    -0.0010    20.6267    41.2556     3.3432    14.6405    14.6392     0.0013   295.0000     9.7664     9.482
    229     1.8401     1.8399     0.8400      5.646      0.000  22200.000      6.000    41.2537    29.5669   -78.2420     1.2730    -1.5670    -0.0020    -0.0010    20.6267    41.2556     3.3542    14.6405    14.6392     0.0013   295.0000     9.7647     9.479
    230     1.8451     1.8449     0.8450      5.577      0.000  22200.000      6.000    41.2537    29.3455   -78.5471     1.2730    -1.5670    -0.0020    -0.0010    20.6267    41.2556     3.3652    14.6405    14.6392     0.0013   295.0000     9.7484     9.459
    231     1.8501     1.8499     0.8500      5.632      0.000  22200.000      6.000    41.2537    29.1270   -78.8493     1.2730    -1.5670    -0.0020    -0.0010    20.6267    41.2556     3.3760    14.6405    14.6392     0.0013   295.0000     9.7484     9.459
    232     1.8551     1.8550     0.8549      5.554      0.000  22200.000      6.000    41.2537    28.9065   -79.1564     1.2730    -1.5670    -0.0020    -0.0010    20.6267    41.2556     3.3870    14.6405    14.6392     0.0013   295.0000     9.7522     9.491
    233     1.8600     1.8599     0.8600      5.702      2.000  22200.000      6.000    41.2537    28.6831   -79.4615     1.2730    -1.5670    -0.0020    -0.0010    20.6267    41.2556     3.3979    14.6405    14.6392     0.0013   295.0000     9.7408     9.461
    234     1.8651     1.8649     0.8650      5.641      0.000  22200.000      6.000    41.2537    28.4626   -79.7706     1.2730    -1.5670    -0.0020    -0.0010    20.6267    41.2556     3.4089    14.6405    14.6392     0.0013   295.0000     9.7366     9.449
    235     1.8701     1.8699     0.8700      5.636      0.000  22200.000      6.000    41.2537    28.2421   -80.0776     1.2730    -1.5670    -0.0020    -0.0010    20.6267    41.2556     3.4199    14.6405    14.6392     0.0013   295.0000     9.7390     9.493
    236     1.8751     1.8749     0.8750      5.618      0.000  22200.000      6.000    41.2537    28.0217   -80.3867     1.2730    -1.5670    -0.0020    -0.0010    20.6267    41.2556     3.4308    14.6405    14.6392     0.0013   295.0000     9.7390     9.493
    237     1.8801     1.8799     0.8800      5.644      0.000  22200.000      6.000    41.2537    27.8012   -80.6967     1.2730    -1.5670    -0.0020    -0.0010    20.6267    41.2556     3.4418    14.6405    14.6392     0.0013   295.0000     9.7993     9.504
    238     1.8850     1.8849     0.8850      5.579      1.000  22200.000      6.000    41.2537    27.5807   -81.0058     1.2730    -1.5670    -0.0020    -0.0010    20.6267    41.2556     3.4527    14.6405    14.6392     0.0013   295.0000     9.7253     9.460
    239     1.8901     1.8899     0.8900      5.604      0.000  22200.000      6.000    41.2537    27.3593   -81.3198     1.2730    -1.5670    -0.0020    -0.0010    20.6267    41.2556     3.4638    14.6405    14.6392     0.0013   295.0000     9.7273     9.479
    240     1.8951     1.8950     0.8949      5.635      0.000  22200.000      6.000    41.2537    27.1407   -81.6318     1.2730    -1.5670    -0.0020    -0.0010    20.6267    41.2556     3.4747    14.6405    14.6392     0.0013   295.0000     9.7273     9.479
    241     1.9001     1.8999     0.9000      5.617      2.000  22200.000      6.000    41.2537    26.9183   -81.9428     1.2730    -1.5670    -0.0020    -0.0010    20.6267    41.2556     3.4856    14.6405    14.6392     0.0013   295.0000     9.7185     9.460
    242     1.9051     1.9049     0.9050      5.702      0.000  22200.000      6.000    41.2537    26.6969   -82.2587     1.2730    -1.5670    -0.0020    -0.0010    20.6267    41.2556     3.4967    14.6405    14.6392     0.0013   295.0000     9.7215     9.451
    243     1.9101     1.9099     0.9100      5.647      2.000  22200.000      6.000    41.2537    26.4754   -82.5727     1.2730    -1.5670    -0.0020    -0.0010    20.6267    41.2556     3.5077    14.6405    14.6392     0.0013   295.0000     9.7088     9.448
    244     1.9151     1.9149     0.9150      5.644      0.000  22200.000      6.000    41.2537    26.2559   -82.8887     1.2730    -1.5670    -0.0020    -0.0010    20.6267    41.2556     3.5187    14.6405    14.6392     0.0013   295.0000     9.7088     9.448
    245     1.9202     1.9200     0.9199      5.587      0.000  22200.000      6.000    41.2537    26.0364   -83.2076     1.2730    -1.5670    -0.0020    -0.0010    20.6267    41.2556     3.5297    14.6405    14.6392     0.0013   295.0000     9.7865     9.506
    246     1.9251     1.9249     0.9250      5.698      0.000  22200.000      6.000    41.2537    25.8140   -83.5235     1.2730    -1.5670    -0.0020    -0.0010    20.6267    41.2556     3.5407    14.6405    14.6392     0.0013   295.0000     9.7127     9.470
    247     1.9301     1.9300     0.9300      5.634      1.000  22200.000      6.000    41.2537    25.5915   -83.8434     1.2730    -1.5670    -0.0020    -0.0010    20.6267    41.2556     3.5517    14.6405    14.6392     0.0013   295.0000     9.7054     9.444
    248     1.9351     1.9349     0.9350      5.621      1.000  22200.000      6.000    41.2537    25.3701   -84.1623     1.2730    -1.5670    -0.0020    -0.0010    20.6267    41.2556     3.5627    14.6405    14.6392     0.0013   295.0000     9.7059     9.521
    249     1.9400     1.9399     0.9400      5.666      1.000  22200.000      6.000    41.2537    25.1486   -84.4802     1.2730    -1.5670    -0.0020    -0.0010    20.6267    41.2556     3.5737    14.6405    14.6392     0.0013   295.0000     9.7059     9.521
    250     1.9451     1.9449     0.9450      5.598      0.000  22200.000      6.000    41.2537    24.9281   -84.8020     1.2730    -1.5670    -0.0020    -0.0010    20.6267    41.2556     3.5847    14.6405    14.6392     0.0013   295.0000     9.7024     9.472
    251     1.9501     1.9499     0.9500      5.630      1.000  22200.000      6.000    41.2537    24.7067   -85.1259     1.2730    -1.5670    -0.0020    -0.0010    20.6267    41.2556     3.5958    14.6405    14.6392     0.0013   295.0000     9.6963     9.444
    252     1.9551     1.9549     0.9550      5.609      2.000  22200.000      6.000    41.2537    24.4852   -85.4477     1.2730    -1.5670    -0.0020    -0.0010    20.6267    41.2556     3.6068    14.6405    14.6392     0.0013   295.0000     9.6953     9.464
    253     1.9601     1.9599     0.9600      5.619      0.000  22200.000      6.000    41.2537    24.2628   -85.7725     1.2730    -1.5670    -0.0020    -0.0010    20.6267    41.2556     3.6178    14.6405    14.6392     0.0013   295.0000     9.6953     9.464
    254     1.9651     1.9649     0.9650      5.628      0.000  22200.000      6.000    41.2537    24.0423   -86.0963     1.2730    -1.5670    -0.0020    -0.0010    20.6267    41.2556     3.6288    14.6405    14.6392     0.0013   295.0000     9.6927     9.466
    255     1.9701     1.9700     0.9699      5.608      0.000  22200.000      6.000    41.2537    23.8209   -86.4241     1.2730    -1.5670    -0.0020    -0.0010    20.6267    41.2556     3.6399    14.6405    14.6392     0.0013   295.0000     9.6968     9.482
    256     1.9751     1.9749     0.9750      5.680      1.000  22200.000      6.000    41.2537    23.5965   -86.7509     1.2730    -1.5670    -0.0020    -0.0010    20.6267    41.2556     3.6509    14.6405    14.6392     0.0013   295.0000     9.7473     9.460
    257     1.9800     1.9799     0.9800      5.645      3.000  22200.000      6.000    41.2537    23.3750   -87.0767     1.2730    -1.5670    -0.0020    -0.0010    20.6267    41.2556     3.6619    14.6405    14.6392     0.0013   295.0000     9.6918     9.487
    258     1.9851     1.9850     0.9849      5.650     10.000  22200.000      6.000    41.2537    23.1545   -87.4083     1.2730    -1.5670    -0.0020    -0.0010    20.6267    41.2556     3.6731    14.6405    14.6392     0.0013   295.0000     9.6918     9.487
    259     1.9901     1.9900     0.9900      5.667     90.000  22200.000      6.000    41.2537    22.9311   -87.7391     1.2730    -1.5670    -0.0020    -0.0010    20.6267    41.2556     3.6841    14.6405    14.6392     0.0013   295.0000     9.6935     9.458
    260     1.9951     1.9949     0.9950      5.642    159.000  22200.000      6.000    41.2537    22.7077   -88.0678     1.2730    -1.5670    -0.0020    -0.0010    20.6267    41.2556     3.6951    14.6405    14.6392     0.0013   295.0000     9.7400     9.469
    261     2.0001     1.9999     1.0000      5.610    233.000  22200.000      6.000    41.2537    22.4833   -88.4015     1.2730    -1.5670    -0.0020    -0.0010    20.6267    41.2556     3.7062    14.6405    14.6392     0.0013   295.0000     9.6846     9.465
    262     2.0051     2.0050     1.0049      5.670    200.000  22200.000      6.000    41.2537    22.2628   -88.7351     1.2730    -1.5670    -0.0020    -0.0010    20.6267    41.2556     3.7173    14.6405    14.6392     0.0013   295.0000     9.6846     9.465
    263     2.0101     2.0099     1.0100      5.610    114.000  22200.000      6.000    41.2537    22.0374   -89.0688     1.2730    -1.5670    -0.0020    -0.0010    20.6267    41.2556     3.7284    14.6405    14.6392     0.0013   295.0000     9.6897     9.506
    264     2.0151     2.0149     1.0150      5.531     10.000  22200.000      6.000    41.2537    21.8140   -89.4044     1.2730    -1.5670    -0.0020    -0.0010    20.6267    41.2556     3.7394    14.6405    14.6392     0.0013   295.0000     9.7416     9.477
    265     2.0201     2.0199     1.0200      5.617      0.000  22200.000      6.000    41.2537    21.5906   -89.7410     1.2730    -1.5670    -0.0020    -0.0010    20.6267    41.2556     3.7505    14.6405    14.6392     0.0013   295.0000     9.6853     9.467
    266     2.0250     2.0248     1.0250      5.662      1.000  22200.000      6.000    41.2537    21.3671   -90.0747     1.2730    -1.5670    -0.0020    -0.0010    20.6267    41.2556     3.7615    14.6405    14.6392     0.0013   295.0000     9.6794     9.506
    267     2.0302     2.0300     1.0299      5.597      0.000  22200.000      6.000    41.2537    21.1447   -90.4192     1.2730    -1.5670    -0.0020    -0.0010    20.6267    41.2556     3.7727    14.6405    14.6392     0.0013   295.0000     9.6794     9.506
    268     2.0351     2.0349     1.0350      5.645      0.000  22200.000      6.000    41.2537    20.9183   -90.7568     1.2730    -1.5670    -0.0020    -0.0010    20.6267    41.2556     3.7838    14.6405    14.6392     0.0013   295.0000     9.7169     9.460
    269     2.0401     2.0400     1.0400      5.638      1.000  22200.000      6.000    41.2537    20.6929   -91.0993     1.2730    -1.5670    -0.0020    -0.0010    20.6267    41.2556     3.7949    14.6405    14.6392     0.0013   295.0000     9.6843     9.472
    270     2.0451     2.0449     1.0450      5.661      0.000  22200.000      6.000    41.2537    20.4675   -91.4398     1.2730    -1.5670    -0.0020    -0.0010    20.6267    41.2556     3.8060    14.6405    14.6392     0.0013   295.0000     9.6846     9.482
    271     2.0501     2.0499     1.0500      5.632      0.000  22200.000      6.000    41.2537    20.2441   -91.7824     1.2730    -1.5670    -0.0020    -0.0010    20.6267    41.2556     3.8170    14.6405    14.6392     0.0013   295.0000     9.6846     9.482
    272     2.0551     2.0549     1.0550      5.702      1.000  22200.000      6.000    41.2537    20.0197   -92.1259     1.2730    -1.5670    -0.0020    -0.0010    20.6267    41.2556     3.8281    14.6405    14.6392     0.0013   295.0000     9.6922     9.490
    273     2.0600     2.0599     1.0600      5.593      2.000  22200.000      6.000    41.2537    19.7933   -92.4704     1.2730    -1.5670    -0.0020    -0.0010    20.6267    41.2556     3.8392    14.6405    14.6392     0.0013   295.0000     9.6913     9.478
    274     2.0651     2.0649     1.0650      5.615      0.000  22200.000      6.000    41.2537    19.5659   -92.8198     1.2730    -1.5670    -0.0020    -0.0010    20.6267    41.2556     3.8504    14.6405    14.6392     0.0013   295.0000     9.6981     9.483
    275     2.0701     2.0699     1.0700      5.595      1.000  22200.000      6.000    41.2537    19.3406   -93.1662     1.2730    -1.5670    -0.0020    -0.0010    20.6267    41.2556     3.8614    14.6405    14.6392     0.0013   295.0000     9.6975     9.484
    276     2.0751     2.0749     1.0750      5.629      3.000  22200.000      6.000    41.2537    19.1152   -93.5146     1.2730    -1.5670    -0.0020    -0.0010    20.6267    41.2556     3.8725    14.6405    14.6392     0.0013   295.0000     9.6975     9.484
    277     2.0801     2.0799     1.0800      5.649      0.000  22200.000      6.000    41.2537    18.8878   -93.8650     1.2730    -1.5670    -0.0020    -0.0010    20.6267    41.2556     3.8836    14.6405    14.6392     0.0013   295.0000     9.7042     9.500
    278     2.0851     2.0850     1.0850      5.626      0.000  22200.000      6.000    41.2537    18.6604   -94.2194     1.2730    -1.5670    -0.0020    -0.0010    20.6267    41.2556     3.8949    14.6405    14.6392     0.0013   295.0000     9.7132     9.496
    279     2.0901     2.0899     1.0900      5.640      0.000  22200.000      6.000    41.2537    18.4331   -94.5698     1.2730    -1.5670    -0.0020    -0.0010    20.6267    41.2556     3.9059    14.6405    14.6392     0.0013   295.0000     9.6779     9.462
    280     2.0951     2.0949     1.0950      5.601      1.000  22200.000      6.000    41.2537    18.2037   -94.9241     1.2730    -1.5670    -0.0020    -0.0010    20.6267    41.2556     3.9170    14.6405    14.6392     0.0013   295.0000     9.6779     9.462
    281     2.1001     2.1000     1.0999      5.622      1.000  22200.000      6.000    41.2537    17.9774   -95.2814     1.2730    -1.5670    -0.0020    -0.0010    20.6267    41.2556     3.9282    14.6405    14.6392     0.0013   295.0000     9.7367     9.492
    282     2.1051     2.1049     1.1050      5.591      1.000  22200.000      6.000    41.2537    17.7470   -95.6377     1.2730    -1.5670    -0.0020    -0.0010    20.6267    41.2556     3.9393    14.6405    14.6392     0.0013   295.0000     9.7364     9.545
    283     2.1100     2.1098     1.1100      5.655      3.000  22200.000      6.000    41.2537    17.5177   -95.9920     1.2730    -1.5670    -0.0020    -0.0010    20.6267    41.2556     3.9504    14.6405    14.6392     0.0013   295.0000     9.7344     9.473
    284     2.1151     2.1149     1.1150      5.650      1.000  22200.000      6.000    41.2537    17.2874   -96.3562     1.2730    -1.5670    -0.0020    -0.0010    20.6267    41.2556     3.9616    14.6405    14.6392     0.0013   295.0000     9.7475     9.572
    285     2.1201     2.1200     1.1199      5.621      1.000  22200.000      6.000    41.2537    17.0610   -96.7154     1.2730    -1.5670    -0.0020    -0.0010    20.6267    41.2556     3.9727    14.6405    14.6392     0.0013   295.0000     9.7475     9.572
    286     2.1251     2.1249     1.1250      5.629      0.000  22200.000      6.000    41.2537    16.8297   -97.0757     1.2730    -1.5670    -0.0020    -0.0010    20.6267    41.2556     3.9838    14.6405    14.6392     0.0013   295.0000     9.7454     9.536
    287     2.1301     2.1299     1.1300      5.546      0.000  22200.000      6.000    41.2537    16.5974   -97.4408     1.2730    -1.5670    -0.0020    -0.0010    20.6267    41.2556     3.9950    14.6405    14.6392     0.0013   295.0000     9.7512     9.555
    288     2.1351     2.1349     1.1350      5.648      1.000  22200.000      6.000    41.2537    16.3661   -97.8070     1.2730    -1.5670    -0.0020    -0.0010    20.6267    41.2556     4.0062    14.6405    14.6392     0.0013   295.0000     9.7524     9.555
    289     2.1401     2.1399     1.1400      5.643      2.000  22200.000      6.000    41.2537    16.1358   -98.1721     1.2730    -1.5670    -0.0020    -0.0010    20.6267    41.2556     4.0173    14.6405    14.6392     0.0013   295.0000     9.7524     9.555
    290     2.1451     2.1449     1.1450      5.636      1.000  22200.000      6.000    41.2537    15.9026   -98.5412     1.2730    -1.5670    -0.0020    -0.0010    20.6267    41.2556     4.0285    14.6405    14.6392     0.0013   295.0000     9.7599     9.579
    291     2.1501     2.1500     1.1500      5.631      1.000  22200.000      6.000    41.2537    15.6713   -98.9113     1.2730    -1.5670    -0.0020    -0.0010    20.6267    41.2556     4.0397    14.6405    14.6392     0.0013   295.0000     9.6937     9.503
    292     2.1551     2.1549     1.1550      5.613      2.000  22200.000      6.000    41.2537    15.4380   -99.2804     1.2730    -1.5670    -0.0020    -0.0010    20.6267    41.2556     4.0508    14.6405    14.6392     0.0013   295.0000     9.7493     9.515
    293     2.1601     2.1599     1.1600      5.607      1.000  22200.000      6.000    41.2537    15.2047   -99.6524     1.2730    -1.5670    -0.0020    -0.0010    20.6267    41.2556     4.0620    14.6405    14.6392     0.0013   295.0000     9.7597     9.507
    294     2.1651     2.1649     1.1650      5.612      1.000  22200.000      6.000    41.2537    14.9715  -100.0245     1.2730    -1.5670    -0.0020    -0.0010    20.6267    41.2556     4.0731    14.6405    14.6392     0.0013   295.0000     9.7597     9.507
    295     2.1701     2.1699     1.1700      5.554      0.000  22200.000      6.000    41.2537    14.7352  -100.4024     1.2730    -1.5670    -0.0020    -0.0010    20.6267    41.2556     4.0843    14.6405    14.6392     0.0013   295.0000     9.7575     9.466
    296     2.1751     2.1749     1.1750      5.673      0.000  22200.000      6.000    41.2537    14.5000  -100.7794     1.2730    -1.5670    -0.0020    -0.0010    20.6267    41.2556     4.0955    14.6405    14.6392     0.0013   295.0000     9.7653     9.563
    297     2.1801     2.1799     1.1800      5.653      1.000  22200.000      6.000    41.2537    14.2657  -101.1564     1.2730    -1.5670    -0.0020    -0.0010    20.6267    41.2556     4.1066    14.6405    14.6392     0.0013   295.0000     9.7571     9.550
    298     2.1851     2.1849     1.1849      5.634      0.000  22200.000      6.000    41.2537    14.0315  -101.5363     1.2730    -1.5670    -0.0020    -0.0010    20.6267    41.2556     4.1178    14.6405    14.6392     0.0013   295.0000     9.7571     9.550
    299     2.1901     2.1899     1.1899      5.669      0.000  22200.000      6.000    41.2537    13.7943  -101.9192     1.2730    -1.5670    -0.0020    -0.0010    20.6267    41.2556     4.1290    14.6405    14.6392     0.0013   295.0000     9.6990     9.491
    300     2.1951     2.1949     1.1950      5.611      1.000  22200.000      6.000    41.2537    13.5541  -102.3030     1.2730    -1.5670    -0.0020    -0.0010    20.6267    41.2556     4.1402    14.6405    14.6392     0.0013   295.0000     9.7634     9.558
    301     2.2001     2.2000     1.1999      5.623      1.000  22200.000      6.000    41.2537    13.3189  -102.6889     1.2730    -1.5670    -0.0020    -0.0010    20.6267    41.2556     4.1514    14.6405    14.6392     0.0013   295.0000     9.7598     9.534
    302     2.2050     2.2048     1.2050      5.638      1.000  22200.000      6.000    41.2537    13.0787  -103.0717     1.2730    -1.5670    -0.0020    -0.0010    20.6267    41.2556     4.1625    14.6405    14.6392     0.0013   295.0000     9.7016     9.531
    303     2.2101     2.2100     1.2099      5.624      1.000  22200.000      6.000    41.2537    12.8415  -103.4645     1.2730    -1.5670    -0.0020    -0.0010    20.6267    41.2556     4.1738    14.6405    14.6392     0.0013   295.0000     9.7016     9.531
    304     2.2151     2.2149     1.2150      5.626      2.000  22200.000      6.000    41.2537    12.5994  -103.8552     1.2730    -1.5670    -0.0020    -0.0010    20.6267    41.2556     4.1850    14.6405    14.6392     0.0013   295.0000     9.7620     9.546
    305     2.2201     2.2199     1.2200      5.625      0.000  22200.000      6.000    41.2537    12.3602  -104.2459     1.2730    -1.5670    -0.0020    -0.0010    20.6267    41.2556     4.1961    14.6405    14.6392     0.0013   295.0000     9.7665     9.552
    306     2.2251     2.2249     1.2250      5.635      0.000  22200.000      6.000    41.2537    12.1191  -104.6416     1.2730    -1.5670    -0.0020    -0.0010    20.6267    41.2556     4.2074    14.6405    14.6392     0.0013   295.0000     9.7605     9.542
    307     2.2301     2.2299     1.2300      5.584      1.000  22200.000      6.000    41.2537    11.8770  -105.0353     1.2730    -1.5670    -0.0020    -0.0010    20.6267    41.2556     4.2185    14.6405    14.6392     0.0013   295.0000     9.7749     9.572
    308     2.2351     2.2349     1.2351      5.545      0.000  22200.000      6.000    41.2537    11.6329  -105.4339     1.2730    -1.5670    -0.0020    -0.0010    20.6267    41.2556     4.2297    14.6405    14.6392     0.0013   295.0000     9.7749     9.572
    309     2.2401     2.2399     1.2400      5.602      0.000  22200.000      6.000    41.2537    11.3907  -105.8326     1.2730    -1.5670    -0.0020    -0.0010    20.6267    41.2556     4.2409    14.6405    14.6392     0.0013   295.0000     9.7739     9.554
    310     2.2452     2.2450     1.2449      5.563      0.000  22200.000      6.000    41.2537    11.1476  -106.2391     1.2730    -1.5670    -0.0020    -0.0010    20.6267    41.2556     4.2523    14.6405    14.6392     0.0013   295.0000     9.7726     9.551
    311     2.2501     2.2499     1.2500      5.589      0.000  22200.000      6.000    41.2537    10.9035  -106.6377     1.2730    -1.5670    -0.0020    -0.0010    20.6267    41.2556     4.2633    14.6405    14.6392     0.0013   295.0000     9.7805     9.566
    312     2.2551     2.2549     1.2550      5.673      1.000  22200.000      6.000    41.2537    10.6575  -107.0432     1.2730    -1.5670    -0.0020    -0.0010    20.6267    41.2556     4.2745    14.6405    14.6392     0.0013   295.0000     9.7805     9.566
    313     2.2601     2.2599     1.2600      5.610      1.000  22200.000      6.000    41.2537    10.4104  -107.4517     1.2730    -1.5670    -0.0020    -0.0010    20.6267    41.2556     4.2858    14.6405    14.6392     0.0013   295.0000     9.7852     9.567
    314     2.2651     2.2649     1.2650      5.612      0.000  22200.000      6.000    41.2537    10.1634  -107.8611     1.2730    -1.5670    -0.0020    -0.0010    20.6267    41.2556     4.2970    14.6405    14.6392     0.0013   295.0000     9.7128     9.504
    315     2.2701     2.2699     1.2700      5.649      0.000  22200.000      6.000    41.2537     9.9163  -108.2735     1.2730    -1.5670    -0.0020    -0.0010    20.6267    41.2556     4.3082    14.6405    14.6392     0.0013   295.0000     9.7887     9.553
    316     2.2751     2.2749     1.2750      5.644      0.000  22200.000      6.000    41.2537     9.6654  -108.6889     1.2730    -1.5670    -0.0020    -0.0010    20.6267    41.2556     4.3195    14.6405    14.6392     0.0013   295.0000     9.8045     9.484
    317     2.2800     2.2798     1.2800      5.643      1.000  22200.000      6.000    41.2537     9.4173  -109.1003     1.2730    -1.5670    -0.0020    -0.0010    20.6267    41.2556     4.3306    14.6405    14.6392     0.0013   295.0000     9.8045     9.484
    318     2.2852     2.2850     1.2849      5.652      0.000  22200.000      6.000    41.2537     9.1683  -109.5235     1.2730    -1.5670    -0.0020    -0.0010    20.6267    41.2556     4.3419    14.6405    14.6392     0.0013   295.0000     9.7291     9.516
    319     2.2901     2.2900     1.2899      5.607      0.000  22200.000      6.000    41.2537     8.9163  -109.9438     1.2730    -1.5670    -0.0020    -0.0010    20.6267    41.2556     4.3532    14.6405    14.6392     0.0013   295.0000     9.8044     9.557
    320     2.2951     2.2949     1.2951      5.643      2.000  22200.000      6.000    41.2537     8.6614  -110.3650     1.2730    -1.5670    -0.0020    -0.0010    20.6267    41.2556     4.3644    14.6405    14.6392     0.0013   295.0000     9.8135     9.576
    321     2.3001     2.2999     1.3000      5.689      4.000  22200.000      6.000    41.2537     8.4094  -110.7902     1.2730    -1.5670    -0.0020    -0.0010    20.6267    41.2556     4.3756    14.6405    14.6392     0.0013   295.0000     9.8159     9.556
    322     2.3051     2.3049     1.3050      5.685      4.000  22200.000      6.000    41.2537     8.1555  -111.2184     1.2730    -1.5670    -0.0020    -0.0010    20.6267    41.2556     4.3868    14.6405    14.6392     0.0013   295.0000     9.8159     9.556
    323     2.3102     2.3100     1.3099      5.612      2.000  22200.000      6.000    41.2537     7.9016  -111.6495     1.2730    -1.5670    -0.0020    -0.0010    20.6267    41.2556     4.3981    14.6405    14.6392     0.0013   295.0000     9.8181     9.581
    324     2.3150     2.3148     1.3150      5.612      0.000  22200.000      6.000    41.2537     7.6437  -112.0776     1.2730    -1.5670    -0.0020    -0.0010    20.6267    41.2556     4.4092    14.6405    14.6392     0.0013   295.0000     9.8219     9.574
    325     2.3201     2.3199     1.3200      5.594      0.000  22200.000      6.000    41.2537     7.3858  -112.5146     1.2730    -1.5670    -0.0020    -0.0010    20.6267    41.2556     4.4205    14.6405    14.6392     0.0013   295.0000     9.8243     9.574
    326     2.3252     2.3250     1.3249      5.696      2.000  22200.000      6.000    41.2537     7.1289  -112.9546     1.2730    -1.5670    -0.0020    -0.0010    20.6267    41.2556     4.4318    14.6405    14.6392     0.0013   295.0000     9.8243     9.574
    327     2.3301     2.3299     1.3300      5.554      0.000  22200.000      6.000    41.2537     6.8691  -113.3936     1.2730    -1.5670    -0.0020    -0.0010    20.6267    41.2556     4.4430    14.6405    14.6392     0.0013   295.0000     9.8294     9.602
    328     2.3352     2.3350     1.3350      5.647      2.000  22200.000      6.000    41.2537     6.6063  -113.8414     1.2730    -1.5670    -0.0020    -0.0010    20.6267    41.2556     4.4544    14.6405    14.6392     0.0013   295.0000     9.8283     9.557
    329     2.3401     2.3399     1.3400      5.654      2.000  22200.000      6.000    41.2537     6.3455  -114.2814     1.2730    -1.5670    -0.0020    -0.0010    20.6267    41.2556     4.4655    14.6405    14.6392     0.0013   295.0000     9.7744     9.562
    330     2.3451     2.3450     1.3449      5.639      2.000  22200.000      6.000    41.2537     6.0837  -114.7312     1.2730    -1.5670    -0.0020    -0.0010    20.6267    41.2556     4.4768    14.6405    14.6392     0.0013   295.0000     9.8313     9.591
    331     2.3501     2.3499     1.3499      5.644      0.000  22200.000      6.000    41.2537     5.8189  -115.1820     1.2730    -1.5670    -0.0020    -0.0010    20.6267    41.2556     4.4880    14.6405    14.6392     0.0013   295.0000     9.8313     9.591
    332     2.3551     2.3549     1.3550      5.630      0.000  22200.000      6.000    41.2537     5.5512  -115.6357     1.2730    -1.5670    -0.0020    -0.0010    20.6267    41.2556     4.4993    14.6405    14.6392     0.0013   295.0000     9.8337     9.599
    333     2.3601     2.3599     1.3600      5.643      0.000  22200.000      6.000    41.2537     5.2854  -116.0934     1.2730    -1.5670    -0.0020    -0.0010    20.6267    41.2556     4.5106    14.6405    14.6392     0.0013   295.0000     9.8350     9.558
    334     2.3651     2.3649     1.3649      5.626      1.000  22200.000      6.000    41.2537     5.0187  -116.5530     1.2730    -1.5670    -0.0020    -0.0010    20.6267    41.2556     4.5218    14.6405    14.6392     0.0013   295.0000     9.8369     9.573
    335     2.3701     2.3699     1.3700      5.632      1.000  22200.000      6.000    41.2537     4.7480  -117.0156     1.2730    -1.5670    -0.0020    -0.0010    20.6267    41.2556     4.5331    14.6405    14.6392     0.0013   295.0000     9.7855     9.592
    336     2.3751     2.3749     1.3750      5.655      0.000  22200.000      6.000    41.2537     4.4754  -117.4832     1.2730    -1.5670    -0.0020    -0.0010    20.6267    41.2556     4.5444    14.6405    14.6392     0.0013   295.0000     9.7855     9.592
    337     2.3801     2.3799     1.3800      5.595      0.000  22200.000      6.000    41.2537     4.2047  -117.9517     1.2730    -1.5670    -0.0020    -0.0010    20.6267    41.2556     4.5556    14.6405    14.6392     0.0013   295.0000     9.7807     9.557
    338     2.3851     2.3849     1.3850      5.641      0.000  22200.000      6.000    41.2537     3.9311  -118.4261     1.2730    -1.5670    -0.0020    -0.0010    20.6267    41.2556     4.5669    14.6405    14.6392     0.0013   295.0000     9.8425     9.573
    339     2.3901     2.3899     1.3900      5.606      0.000  22200.000      6.000    41.2537     3.6555  -118.9015     1.2730    -1.5670    -0.0020    -0.0010    20.6267    41.2556     4.5782    14.6405    14.6392     0.0013   295.0000     9.8393     9.557
    340     2.3951     2.3949     1.3950      5.616      1.000  22200.000      6.000    41.2537     3.3789  -119.3808     1.2730    -1.5670    -0.0020    -0.0010    20.6267    41.2556     4.5894    14.6405    14.6392     0.0013   295.0000     9.8469     9.601
    341     2.4002     2.4000     1.3999      5.691      0.000  22200.000      6.000    41.2537     3.1004  -119.8660     1.2730    -1.5670    -0.0020    -0.0010    20.6267    41.2556     4.6007    14.6405    14.6392     0.0013   295.0000     9.8469     9.601
    342     2.4051     2.4049     1.4050      5.624      2.000  22200.000      6.000    41.2537     2.8199  -120.3503     1.2730    -1.5670    -0.0020    -0.0010    20.6267    41.2556     4.6119    14.6405    14.6392     0.0013   295.0000     9.8430     9.567
    343     2.4101     2.4099     1.4100      5.567      2.000  22200.000      6.000    41.2537     2.5364  -120.8434     1.2730    -1.5670    -0.0020    -0.0010    20.6267    41.2556     4.6233    14.6405    14.6392     0.0013   295.0000     9.8387     9.567
    344     2.4152     2.4150     1.4149      5.601      2.000  22200.000      6.000    41.2537     2.2549  -121.3414     1.2730    -1.5670    -0.0020    -0.0010    20.6266    41.2556     4.6346    14.6405    14.6392     0.0013   295.0000     9.7980     9.565
    345     2.4201     2.4199     1.4200      5.584      0.000  22200.000      6.000    41.2537     1.9685  -121.8345     1.2730    -1.5670    -0.0020    -0.0010    20.6266    41.2556     4.6458    14.6405    14.6392     0.0013   295.0000     9.8429     9.585
    346     2.4251     2.4249     1.4250      5.560      0.000  22200.000      6.000    41.2537     1.6811  -122.3375     1.2730    -1.5670    -0.0020    -0.0010    20.6266    41.2556     4.6571    14.6405    14.6392     0.0013   295.0000     9.8429     9.585
    347     2.4301     2.4299     1.4300      5.617      1.000  22200.000      6.000    41.2537     1.3917  -122.8454     1.2730    -1.5670    -0.0020    -0.0010    20.6266    41.2556     4.6684    14.6405    14.6392     0.0013   295.0000     9.8438     9.576
    348     2.4351     2.4349     1.4350      5.654      0.000  22200.000      6.000    41.2537     1.1024  -123.3542     1.2730    -1.5670    -0.0020    -0.0010    20.6266    41.2556     4.6797    14.6405    14.6392     0.0013   295.0000     9.8420     9.560
    349     2.4401     2.4399     1.4400      5.591      0.000  22200.000      6.000    41.2537     0.8081  -123.8690     1.2730    -1.5670    -0.0020    -0.0010    20.6266    41.2556     4.6909    14.6405    14.6392     0.0013   295.0000     9.8438     9.578
    350     2.4450     2.4448     1.4451      5.640      1.000  22200.000      6.000    41.2537     0.5118  -124.3887     1.2730    -1.5670    -0.0020    -0.0010    20.6266    41.2556     4.7022    14.6405    14.6392     0.0013   295.0000     9.8476     9.589
    351     2.4501     2.4499     1.4500      5.662      4.000  22200.000      6.000    41.2537     0.2165  -124.9123     1.2730    -1.5670    -0.0020    -0.0010    20.6266    41.2556     4.7135    14.6405    14.6392     0.0013   295.0000     9.8476     9.589
    352     2.4551     2.4549     1.4549      5.688      1.000  22200.000      6.000    41.2537    -0.0817  -125.4428     1.2730    -1.5670    -0.0020    -0.0010    20.6266    41.2556     4.7249    14.6405    14.6392     0.0013   295.0000     9.8066     9.572
    353     2.4601     2.4598     1.4601      5.654      0.000  22200.000      6.000    41.2537    -0.3858  -125.9753     1.2730    -1.5670    -0.0020    -0.0010    20.6266    41.2556     4.7361    14.6405    14.6392     0.0013   295.0000     9.8542     9.573
    354     2.4650     2.4648     1.4651      5.561      2.000  22200.000      6.000    41.2537    -0.6900  -126.5137     1.2730    -1.5670    -0.0020    -0.0010    20.6266    41.2556     4.7474    14.6405    14.6392     0.0013   295.0000     9.8502     9.575
    355     2.4701     2.4699     1.4700      5.729      1.000  22200.000      6.000    41.2537    -0.9931  -127.0560     1.2730    -1.5670    -0.0020    -0.0010    20.6266    41.2556     4.7587    14.6405    14.6392     0.0013   295.0000     9.8085     9.600
    356     2.4751     2.4749     1.4750      5.675      1.000  22200.000      6.000    41.2537    -1.3031  -127.6082     1.2730    -1.5670    -0.0020    -0.0010    20.6266    41.2556     4.7700    14.6405    14.6392     0.0013   295.0000     9.8085     9.600
    357     2.4800     2.4798     1.4801      5.618      6.000  22200.000      6.000    41.2537    -1.6171  -128.1613     1.2730    -1.5670    -0.0020    -0.0010    20.6266    41.2556     4.7813    14.6405    14.6392     0.0013   295.0000     9.8538     9.595
    358     2.4852     2.4850     1.4849      5.639     28.000  22200.000      6.000    41.2537    -1.9281  -128.7253     1.2730    -1.5670    -0.0020    -0.0010    20.6266    41.2556     4.7927    14.6405    14.6392     0.0013   295.0000     9.8501     9.568
    359     2.4900     2.4898     1.4900      5.555     57.000  22200.000      6.000    41.2537    -2.2461  -129.2853     1.2730    -1.5670    -0.0020    -0.0010    20.6266    41.2556     4.8039    14.6405    14.6392     0.0013   295.0000     9.8139     9.566
    360     2.4950     2.4948     1.4951      5.620     52.000  22200.000      6.000    41.2537    -2.5669  -129.8582     1.2730    -1.5670    -0.0020    -0.0010    20.6266    41.2556     4.8152    14.6405    14.6392     0.0013   295.0000     9.8481     9.585
    361     2.5001     2.4999     1.4999      5.612     48.000  22200.000      6.000    41.2537    -2.8868  -130.4379     1.2730    -1.5670    -0.0020    -0.0010    20.6266    41.2556     4.8265    14.6405    14.6392     0.0013   295.0000     9.8481     9.585
    362     2.5051     2.5049     1.5050      5.560     65.000  22200.000      6.000    41.2537    -3.2146  -131.0255     1.2730    -1.5670    -0.0020    -0.0010    20.6266    41.2556     4.8379    14.6405    14.6392     0.0013   295.0000     9.8453     9.600
# Sum of Counts = 3924
# Center of Mass = 1.430848+/-0.033290
# Full Width Half-Maximum = 1.007861+/-0.027785
# 2:26:46 AM  11/9/2003   scan completed.
