# scan = 290
# date = 11/10/2003
# time = 11:41:12 PM
# experiment = TbPtIn single crystal;  100 plane
# experiment_number = 41
# command = scan h 0 k 0 l 1.94 2.06 .005 preset 2
# builtin_command = scan h 0 k 0 l 1.94 2.06 .005 preset 2
# users = O.Garlea, C.Stassis, J.L.Zarestky
# local_contact = J.L.Zarestky
# scan_title = 002 field dependence: base Temp, H = 2.800000 T
# monochromator = PG002
# analyzer = Pg002
# sense = +-+
# collimation = 48-40-40-102
# samplename = TbPtIn
# sampletype = crystal
# samplemosaic = 30.000000
# latticeconstants = 7.554053,7.554053,3.846679,90.000000,90.000000,120.000000
# ubmatrix = -0.005362,-0.005623,0.259740,-0.129577,-0.134798,-0.010795,0.080912,-0.071857,-0.000073
# mode = 0
# plane_normal = 0.001702,0.034158,0.999415
# ubconf = C:\User\exp41\UBConf\UB10Nov2003_64050PM.ini
# preset_type = normal 
# preset_channel = mcu
# preset_value = 2.000000
# def_x = l
# def_y = detector
# col_headers = 
#   Pt.          h          k          l       time   detector    monitor        mcu         m2         s1         s2        sgl        sgu        stl        stu         a1         a2          q         ei         ef          e       temp    coldtip    tsample
      1     0.0001     0.0001     1.9401      1.831      1.000   7400.000      2.000    41.2537   -34.2136   -73.1830    -0.0975     1.9545     1.0040    -3.9990    20.6267    41.2566     3.1689    14.6405    14.6385     0.0020   295.0000     4.2221     4.403
      2    -0.0000     0.0000     1.9449      1.869      2.000   7400.000      2.000    41.2537   -34.3238   -73.3975    -0.0975     1.9545     1.0040    -3.9990    20.6267    41.2566     3.1769    14.6405    14.6385     0.0020   295.0000     4.2221     4.403
      3    -0.0000     0.0000     1.9500      1.855      0.000   7400.000      2.000    41.2537   -34.4350   -73.6200    -0.0975     1.9545     1.0040    -3.9990    20.6267    41.2566     3.1852    14.6405    14.6385     0.0020   295.0000     4.2280     4.390
      4    -0.0000    -0.0000     1.9550      1.842      0.000   7400.000      2.000    41.2537   -34.5453   -73.8395    -0.0975     1.9545     1.0040    -3.9990    20.6267    41.2566     3.1933    14.6405    14.6385     0.0020   295.0000     4.2280     4.390
      5    -0.0000    -0.0000     1.9600      1.851      0.000   7400.000      2.000    41.2537   -34.6555   -74.0599    -0.0975     1.9545     1.0040    -3.9990    20.6267    41.2566     3.2015    14.6405    14.6385     0.0020   295.0000     4.2278     4.386
      6    -0.0000    -0.0000     1.9650      1.846      0.000   7400.000      2.000    41.2537   -34.7657   -74.2804    -0.0975     1.9545     1.0040    -3.9990    20.6267    41.2566     3.2096    14.6405    14.6385     0.0020   295.0000     4.2278     4.386
      7     0.0000     0.0000     1.9700      1.817      1.000   7400.000      2.000    41.2537   -34.8750   -74.5009    -0.0975     1.9545     1.0040    -3.9990    20.6267    41.2566     3.2178    14.6405    14.6385     0.0020   295.0000     4.2278     4.386
      8     0.0000     0.0000     1.9750      1.881      7.000   7400.000      2.000    41.2537   -34.9862   -74.7253    -0.0975     1.9545     1.0040    -3.9990    20.6267    41.2566     3.2261    14.6405    14.6385     0.0020   295.0000     4.2296     4.411
      9     0.0000     0.0000     1.9800      1.811     46.000   7400.000      2.000    41.2537   -35.0955   -74.9428    -0.0975     1.9545     1.0040    -3.9990    20.6267    41.2566     3.2341    14.6405    14.6385     0.0020   295.0000     4.2296     4.411
     10    -0.0000     0.0000     1.9850      1.836    162.000   7400.000      2.000    41.2537   -35.2087   -75.1672    -0.0975     1.9545     1.0040    -3.9990    20.6267    41.2566     3.2423    14.6405    14.6385     0.0020   295.0000     4.2294     4.390
     11    -0.0000     0.0000     1.9900      1.831    405.000   7400.000      2.000    41.2537   -35.3189   -75.3877    -0.0975     1.9545     1.0040    -3.9990    20.6267    41.2566     3.2504    14.6405    14.6385     0.0020   295.0000     4.2294     4.390
     12     0.0000     0.0000     1.9950      1.866    525.000   7400.000      2.000    41.2537   -35.4301   -75.6121    -0.0975     1.9545     1.0040    -3.9990    20.6267    41.2566     3.2587    14.6405    14.6385     0.0020   295.0000     4.2294     4.390
     13     0.0000     0.0000     2.0000      1.858    609.000   7400.000      2.000    41.2537   -35.5413   -75.8335    -0.0975     1.9545     1.0040    -3.9990    20.6267    41.2566     3.2668    14.6405    14.6385     0.0020   295.0000     4.2269     4.387
     14     0.0000     0.0000     2.0050      1.827    626.000   7400.000      2.000    41.2537   -35.6535   -76.0599    -0.0975     1.9545     1.0040    -3.9990    20.6267    41.2566     3.2750    14.6405    14.6385     0.0020   295.0000     4.2269     4.387
     15     0.0000     0.0000     2.0100      1.853    579.000   7400.000      2.000    41.2537   -35.7648   -76.2824    -0.0975     1.9545     1.0040    -3.9990    20.6267    41.2566     3.2832    14.6405    14.6385     0.0020   295.0000     4.2271     4.387
     16     0.0000     0.0000     2.0150      1.886    395.000   7400.000      2.000    41.2537   -35.8770   -76.5058    -0.0975     1.9545     1.0040    -3.9990    20.6267    41.2566     3.2913    14.6405    14.6385     0.0020   295.0000     4.2271     4.387
     17    -0.0000    -0.0000     2.0200      1.900    148.000   7400.000      2.000    41.2537   -35.9902   -76.7302    -0.0975     1.9545     1.0040    -3.9990    20.6267    41.2566     3.2995    14.6405    14.6385     0.0020   295.0000     4.2271     4.387
     18     0.0000     0.0000     2.0250      1.846     41.000   7400.000      2.000    41.2537   -36.1014   -76.9536    -0.0975     1.9545     1.0040    -3.9990    20.6267    41.2566     3.3076    14.6405    14.6385     0.0020   295.0000     4.2265     4.386
     19     0.0000     0.0000     2.0300      1.844      9.000   7400.000      2.000    41.2537   -36.2136   -77.1800    -0.0975     1.9545     1.0040    -3.9990    20.6267    41.2566     3.3158    14.6405    14.6385     0.0020   295.0000     4.2265     4.386
     20    -0.0000     0.0000     2.0350      1.861      1.000   7400.000      2.000    41.2537   -36.3268   -77.4044    -0.0975     1.9545     1.0040    -3.9990    20.6267    41.2566     3.3239    14.6405    14.6385     0.0020   295.0000     4.2317     4.387
     21    -0.0000    -0.0000     2.0400      1.875      0.000   7400.000      2.000    41.2537   -36.4409   -77.6318    -0.0975     1.9545     1.0040    -3.9990    20.6267    41.2566     3.3322    14.6405    14.6385     0.0020   295.0000     4.2317     4.387
     22    -0.0000    -0.0000     2.0450      1.849      1.000   7400.000      2.000    41.2537   -36.5531   -77.8562    -0.0975     1.9545     1.0040    -3.9990    20.6267    41.2566     3.3403    14.6405    14.6385     0.0020   295.0000     4.2317     4.387
     23     0.0000     0.0000     2.0500      1.833      1.000   7400.000      2.000    41.2537   -36.6654   -78.0835    -0.0975     1.9545     1.0040    -3.9990    20.6267    41.2566     3.3485    14.6405    14.6385     0.0020   295.0000     4.2266     4.382
     24     0.0000     0.0000     2.0550      1.845      0.000   7400.000      2.000    41.2537   -36.7795   -78.3109    -0.0975     1.9545     1.0040    -3.9990    20.6267    41.2566     3.3567    14.6405    14.6385     0.0020   295.0000     4.2266     4.382
     25    -0.0000     0.0000     2.0600      1.911      0.000   7400.000      2.000    41.2537   -36.8937   -78.5383    -0.0975     1.9545     1.0040    -3.9990    20.6267    41.2566     3.3648    14.6405    14.6385     0.0020   295.0000     4.2232     4.385
# Sum of Counts = 3559
# Center of Mass = 2.002481+/-0.047470
# Full Width Half-Maximum = 0.020187+/-0.027204
# 11:43:06 PM  11/10/2003   scan completed.
