# scan = 97
# date = 11/9/2003
# time = 4:11:08 PM
# experiment = TbPtIn single crystal;  100 plane
# experiment_number = 41
# command = scan h 1.94 2.06 .005 k 1.94 2.06 .005 l 0 preset 2
# builtin_command = scan h 1.94 2.06 .005 k 1.94 2.06 .005 l 0 preset 2
# users = O.Garlea, C.Stassis, J.L.Zarestky
# local_contact = J.L.Zarestky
# scan_title = 220 order parameter UP T = 40.0000
# monochromator = PG002
# analyzer = Pg002
# sense = +-+
# collimation = 48-40-40-102
# samplename = TbPtIn
# sampletype = crystal
# samplemosaic = 30.000000
# latticeconstants = 7.554017,7.554017,3.847681,90.000000,90.000000,120.000000
# ubmatrix = -0.008230,-0.004834,0.259516,-0.134256,-0.130074,-0.012979,0.072618,-0.080146,0.005414
# mode = 0
# plane_normal = -0.022217,-0.027363,0.999379
# ubconf = C:\User\exp41\UBConf\UB08Nov2003_100555PM.ini
# preset_type = normal 
# preset_channel = mcu
# preset_value = 2.000000
# def_x = h
# def_y = detector
# col_headers = 
#   Pt.          h          k          l       time   detector    monitor        mcu         m2         s1         s2        sgl        sgu        stl        stu         a1         a2          q         ei         ef          e       temp    coldtip    tsample
      1     1.9401     1.9399     0.0000      1.863      0.000   7400.000      2.000    41.2537    55.4478   -74.7578     1.2730    -1.5670    -0.0020    -0.0010    20.6267    41.2556     3.2273    14.6405    14.6392     0.0013    40.0000    39.9120    46.819
      2     1.9450     1.9448     0.0001      1.880      1.000   7400.000      2.000    41.2537    55.3346   -74.9792     1.2730    -1.5670    -0.0020    -0.0010    20.6267    41.2556     3.2354    14.6405    14.6392     0.0013    40.0000    39.8780    46.405
      3     1.9501     1.9499    -0.0001      1.866      1.000   7400.000      2.000    41.2537    55.2244   -75.2095     1.2730    -1.5670    -0.0020    -0.0010    20.6267    41.2556     3.2439    14.6405    14.6392     0.0013    40.0000    39.8780    46.405
      4     1.9551     1.9549     0.0000      1.872      0.000   7400.000      2.000    41.2537    55.1102   -75.4339     1.2730    -1.5670    -0.0020    -0.0010    20.6267    41.2556     3.2522    14.6405    14.6392     0.0013    40.0000    39.8780    46.405
      5     1.9601     1.9599     0.0000      1.875      0.000   7400.000      2.000    41.2537    54.9951   -75.6633     1.2730    -1.5670    -0.0020    -0.0010    20.6267    41.2556     3.2606    14.6405    14.6392     0.0013    40.0000    39.8970    48.363
      6     1.9650     1.9649    -0.0000      1.857      2.000   7400.000      2.000    41.2537    54.8839   -75.8877     1.2730    -1.5670    -0.0020    -0.0010    20.6267    41.2556     3.2688    14.6405    14.6392     0.0013    40.0000    39.8970    48.363
      7     1.9701     1.9700    -0.0000      1.909      3.000   7400.000      2.000    41.2537    54.7687   -76.1190     1.2730    -1.5670    -0.0020    -0.0010    20.6267    41.2556     3.2772    14.6405    14.6392     0.0013    40.0000    39.9100    46.885
      8     1.9751     1.9749     0.0000      1.855      6.000   7400.000      2.000    41.2537    54.6545   -76.3454     1.2730    -1.5670    -0.0020    -0.0010    20.6267    41.2556     3.2855    14.6405    14.6392     0.0013    40.0000    39.9100    46.885
      9     1.9801     1.9799    -0.0000      1.838     51.000   7400.000      2.000    41.2537    54.5413   -76.5727     1.2730    -1.5670    -0.0020    -0.0010    20.6267    41.2556     3.2938    14.6405    14.6392     0.0013    40.0000    39.9100    46.885
     10     1.9850     1.9849     0.0000      1.877    149.000   7400.000      2.000    41.2537    54.4262   -76.8001     1.2730    -1.5670    -0.0020    -0.0010    20.6267    41.2556     3.3021    14.6405    14.6392     0.0013    40.0000    39.9080    45.235
     11     1.9901     1.9899     0.0000      1.848    336.000   7400.000      2.000    41.2537    54.3120   -77.0304     1.2730    -1.5670    -0.0020    -0.0010    20.6267    41.2556     3.3104    14.6405    14.6392     0.0013    40.0000    39.9080    45.235
     12     1.9951     1.9949    -0.0001      1.884    499.000   7400.000      2.000    41.2537    54.1988   -77.2607     1.2730    -1.5670    -0.0020    -0.0010    20.6267    41.2556     3.3188    14.6405    14.6392     0.0013    40.0000    39.9670    47.717
     13     2.0000     1.9999     0.0001      1.890    565.000   7400.000      2.000    41.2537    54.0817   -77.4881     1.2730    -1.5670    -0.0020    -0.0010    20.6267    41.2556     3.3270    14.6405    14.6392     0.0013    40.0000    39.9670    47.717
     14     2.0051     2.0049    -0.0000      1.827    523.000   7400.000      2.000    41.2537    53.9675   -77.7204     1.2730    -1.5670    -0.0020    -0.0010    20.6267    41.2556     3.3354    14.6405    14.6392     0.0013    40.0000    39.9670    47.717
     15     2.0101     2.0099    -0.0000      1.887    453.000   7400.000      2.000    41.2537    53.8533   -77.9497     1.2730    -1.5670    -0.0020    -0.0010    20.6267    41.2556     3.3437    14.6405    14.6392     0.0013    40.0000    39.9840    46.047
     16     2.0151     2.0149    -0.0000      1.864    223.000   7400.000      2.000    41.2537    53.7372   -78.1820     1.2730    -1.5670    -0.0020    -0.0010    20.6267    41.2556     3.3521    14.6405    14.6392     0.0013    40.0000    39.9840    46.047
     17     2.0201     2.0199     0.0000      1.860     67.000   7400.000      2.000    41.2537    53.6211   -78.4123     1.2730    -1.5670    -0.0020    -0.0010    20.6267    41.2556     3.3603    14.6405    14.6392     0.0013    40.0000    39.9840    46.047
     18     2.0251     2.0249    -0.0000      1.885      7.000   7400.000      2.000    41.2537    53.5059   -78.6446     1.2730    -1.5670    -0.0020    -0.0010    20.6267    41.2556     3.3687    14.6405    14.6392     0.0013    40.0000    40.0310    46.182
     19     2.0301     2.0299     0.0000      1.861      2.000   7400.000      2.000    41.2537    53.3898   -78.8749     1.2730    -1.5670    -0.0020    -0.0010    20.6267    41.2556     3.3769    14.6405    14.6392     0.0013    40.0000    40.0310    46.182
     20     2.0351     2.0349     0.0000      1.834      0.000   7400.000      2.000    41.2537    53.2736   -79.1072     1.2730    -1.5670    -0.0020    -0.0010    20.6267    41.2556     3.3853    14.6405    14.6392     0.0013    40.0000    40.0560    47.306
     21     2.0401     2.0399    -0.0000      1.875      0.000   7400.000      2.000    41.2537    53.1575   -79.3414     1.2730    -1.5670    -0.0020    -0.0010    20.6267    41.2556     3.3936    14.6405    14.6392     0.0013    40.0000    40.0560    47.306
     22     2.0451     2.0449     0.0000      1.888      0.000   7400.000      2.000    41.2537    53.0404   -79.5737     1.2730    -1.5670    -0.0020    -0.0010    20.6267    41.2556     3.4019    14.6405    14.6392     0.0013    40.0000    40.0560    47.306
     23     2.0501     2.0499    -0.0000      1.845      0.000   7400.000      2.000    41.2537    52.9242   -79.8070     1.2730    -1.5670    -0.0020    -0.0010    20.6267    41.2556     3.4102    14.6405    14.6392     0.0013    40.0000    40.0430    46.476
     24     2.0551     2.0549    -0.0001      1.841      0.000   7400.000      2.000    41.2537    52.8091   -80.0412     1.2730    -1.5670    -0.0020    -0.0010    20.6267    41.2556     3.4186    14.6405    14.6392     0.0013    40.0000    40.0430    46.476
     25     2.0601     2.0599     0.0000      1.897      0.000   7400.000      2.000    41.2537    52.6890   -80.2755     1.2730    -1.5670    -0.0020    -0.0010    20.6267    41.2556     3.4269    14.6405    14.6392     0.0013    40.0000    40.0430    46.476
# Sum of Counts = 2888
# Center of Mass = 2.000955+/-0.052657
# Full Width Half-Maximum = 0.018768+/-0.030710
# 4:13:14 PM  11/9/2003   scan completed.
