# scan = 251
# date = 11/10/2003
# time = 9:04:53 PM
# experiment = TbPtIn single crystal;  100 plane
# experiment_number = 41
# command = scan h 1.94 2.06 .005 k 1.94 2.06 .005 l 0 preset 4
# builtin_command = scan h 1.94 2.06 .005 k 1.94 2.06 .005 l 0 preset 4
# users = O.Garlea, C.Stassis, J.L.Zarestky
# local_contact = J.L.Zarestky
# scan_title = 220 field dependence: base Temp, H = 0.000000 T
# monochromator = PG002
# analyzer = Pg002
# sense = +-+
# collimation = 48-40-40-102
# samplename = TbPtIn
# sampletype = crystal
# samplemosaic = 30.000000
# latticeconstants = 7.554053,7.554053,3.846679,90.000000,90.000000,120.000000
# ubmatrix = -0.005362,-0.005623,0.259740,-0.129577,-0.134798,-0.010795,0.080912,-0.071857,-0.000073
# mode = 0
# plane_normal = 0.001702,0.034158,0.999415
# ubconf = C:\User\exp41\UBConf\UB10Nov2003_64050PM.ini
# preset_type = normal 
# preset_channel = mcu
# preset_value = 4.000000
# def_x = h
# def_y = detector
# col_headers = 
#   Pt.          h          k          l       time   detector    monitor        mcu         m2         s1         s2        sgl        sgu        stl        stu         a1         a2          q         ei         ef          e       temp    coldtip    tsample
      1     1.9399     1.9402    -0.0000      3.730      4.000  14800.000      4.000    41.2537    54.9970   -74.7587    -0.0975     1.9545     1.0040    -3.9990    20.6266    41.2566     3.2273    14.6405    14.6385     0.0020   295.0000     4.2339     5.457
      2     1.9448     1.9451     0.0000      3.705      0.000  14800.000      4.000    41.2537    54.8839   -74.9802    -0.0975     1.9545     1.0040    -3.9990    20.6266    41.2566     3.2354    14.6405    14.6385     0.0020   295.0000     4.2339     5.457
      3     1.9498     1.9502     0.0000      3.705      1.000  14800.000      4.000    41.2537    54.7707   -75.2095    -0.0975     1.9545     1.0040    -3.9990    20.6266    41.2566     3.2439    14.6405    14.6385     0.0020   295.0000     4.2282     5.461
      4     1.9548     1.9552    -0.0000      3.754      0.000  14800.000      4.000    41.2537    54.6585   -75.4359    -0.0975     1.9545     1.0040    -3.9990    20.6266    41.2566     3.2522    14.6405    14.6385     0.0020   295.0000     4.2400     5.458
      5     1.9598     1.9602    -0.0000      3.729      0.000  14800.000      4.000    41.2537    54.5443   -75.6633    -0.0975     1.9545     1.0040    -3.9990    20.6266    41.2566     3.2605    14.6405    14.6385     0.0020   295.0000     4.2400     5.458
      6     1.9648     1.9651     0.0001      3.732      0.000  14800.000      4.000    41.2537    54.4291   -75.8877    -0.0975     1.9545     1.0040    -3.9990    20.6266    41.2566     3.2687    14.6405    14.6385     0.0020   295.0000     4.2368     5.457
      7     1.9699     1.9702    -0.0001      3.707      2.000  14800.000      4.000    41.2537    54.3179   -76.1190    -0.0975     1.9545     1.0040    -3.9990    20.6266    41.2566     3.2772    14.6405    14.6385     0.0020   295.0000     4.2368     5.457
      8     1.9748     1.9752     0.0000      3.734      9.000  14800.000      4.000    41.2537    54.2028   -76.3454    -0.0975     1.9545     1.0040    -3.9990    20.6266    41.2566     3.2855    14.6405    14.6385     0.0020   295.0000     4.2400     5.464
      9     1.9798     1.9802     0.0000      3.726     35.000  14800.000      4.000    41.2537    54.0886   -76.5727    -0.0975     1.9545     1.0040    -3.9990    20.6266    41.2566     3.2938    14.6405    14.6385     0.0020   295.0000     4.2324     5.462
     10     1.9848     1.9852    -0.0000      3.698    193.000  14800.000      4.000    41.2537    53.9754   -76.8011    -0.0975     1.9545     1.0040    -3.9990    20.6266    41.2566     3.3021    14.6405    14.6385     0.0020   295.0000     4.2324     5.462
     11     1.9898     1.9902    -0.0000      3.685    409.000  14800.000      4.000    41.2537    53.8612   -77.0304    -0.0975     1.9545     1.0040    -3.9990    20.6266    41.2566     3.3104    14.6405    14.6385     0.0020   295.0000     4.2345     5.455
     12     1.9948     1.9952    -0.0000      3.733    568.000  14800.000      4.000    41.2537    53.7461   -77.2607    -0.0975     1.9545     1.0040    -3.9990    20.6266    41.2566     3.3187    14.6405    14.6385     0.0020   295.0000     4.2345     5.455
     13     1.9998     2.0002     0.0001      3.681    599.000  14800.000      4.000    41.2537    53.6289   -77.4900    -0.0975     1.9545     1.0040    -3.9990    20.6266    41.2566     3.3270    14.6405    14.6385     0.0020   295.0000     4.2309     5.453
     14     2.0048     2.0052    -0.0000      3.679    575.000  14800.000      4.000    41.2537    53.5157   -77.7204    -0.0975     1.9545     1.0040    -3.9990    20.6266    41.2566     3.3354    14.6405    14.6385     0.0020   295.0000     4.2402     5.457
     15     2.0098     2.0102     0.0000      3.732    453.000  14800.000      4.000    41.2537    53.4006   -77.9497    -0.0975     1.9545     1.0040    -3.9990    20.6266    41.2566     3.3437    14.6405    14.6385     0.0020   295.0000     4.2402     5.457
     16     2.0148     2.0152    -0.0000      3.721    243.000  14800.000      4.000    41.2537    53.2854   -78.1820    -0.0975     1.9545     1.0040    -3.9990    20.6266    41.2566     3.3520    14.6405    14.6385     0.0020   295.0000     4.2330     5.450
     17     2.0198     2.0202    -0.0000      3.697     77.000  14800.000      4.000    41.2537    53.1693   -78.4133    -0.0975     1.9545     1.0040    -3.9990    20.6266    41.2566     3.3603    14.6405    14.6385     0.0020   295.0000     4.2330     5.450
     18     2.0248     2.0252    -0.0000      3.678     13.000  14800.000      4.000    41.2537    53.0541   -78.6456    -0.0975     1.9545     1.0040    -3.9990    20.6266    41.2566     3.3687    14.6405    14.6385     0.0020   295.0000     4.2349     5.451
     19     2.0298     2.0302    -0.0001      3.719      1.000  14800.000      4.000    41.2537    52.9400   -78.8759    -0.0975     1.9545     1.0040    -3.9990    20.6266    41.2566     3.3769    14.6405    14.6385     0.0020   295.0000     4.2364     5.450
     20     2.0348     2.0352    -0.0000      3.659      3.000  14800.000      4.000    41.2537    52.8228   -79.1072    -0.0975     1.9545     1.0040    -3.9990    20.6266    41.2566     3.3852    14.6405    14.6385     0.0020   295.0000     4.2364     5.450
     21     2.0398     2.0402    -0.0000      3.703      5.000  14800.000      4.000    41.2537    52.7047   -79.3424    -0.0975     1.9545     1.0040    -3.9990    20.6266    41.2566     3.3936    14.6405    14.6385     0.0020   295.0000     4.2322     5.448
     22     2.0448     2.0452     0.0001      3.722      5.000  14800.000      4.000    41.2537    52.5866   -79.5737    -0.0975     1.9545     1.0040    -3.9990    20.6266    41.2566     3.4019    14.6405    14.6385     0.0020   295.0000     4.2322     5.448
     23     2.0498     2.0502    -0.0000      3.683      1.000  14800.000      4.000    41.2537    52.4715   -79.8089    -0.0975     1.9545     1.0040    -3.9990    20.6266    41.2566     3.4103    14.6405    14.6385     0.0020   295.0000     4.2340     5.451
     24     2.0548     2.0552     0.0000      3.695      1.000  14800.000      4.000    41.2537    52.3543   -80.0412    -0.0975     1.9545     1.0040    -3.9990    20.6266    41.2566     3.4185    14.6405    14.6385     0.0020   295.0000     4.2340     5.451
     25     2.0598     2.0602    -0.0000      3.686      0.000  14800.000      4.000    41.2537    52.2382   -80.2765    -0.0975     1.9545     1.0040    -3.9990    20.6266    41.2566     3.4269    14.6405    14.6385     0.0020   295.0000     4.2337     5.468
# Sum of Counts = 3197
# Center of Mass = 2.000576+/-0.050038
# Full Width Half-Maximum = 0.019895+/-0.027799
# 9:07:51 PM  11/10/2003   scan completed.
