# scan = 271
# date = 11/10/2003
# time = 10:24:37 PM
# experiment = TbPtIn single crystal;  100 plane
# experiment_number = 41
# command = scan h 1.94 2.06 .005 k 1.94 2.06 .005 l 0 preset 4
# builtin_command = scan h 1.94 2.06 .005 k 1.94 2.06 .005 l 0 preset 4
# users = O.Garlea, C.Stassis, J.L.Zarestky
# local_contact = J.L.Zarestky
# scan_title = 220 field dependence: base Temp, H = 1.600000 T
# monochromator = PG002
# analyzer = Pg002
# sense = +-+
# collimation = 48-40-40-102
# samplename = TbPtIn
# sampletype = crystal
# samplemosaic = 30.000000
# latticeconstants = 7.554053,7.554053,3.846679,90.000000,90.000000,120.000000
# ubmatrix = -0.005362,-0.005623,0.259740,-0.129577,-0.134798,-0.010795,0.080912,-0.071857,-0.000073
# mode = 0
# plane_normal = 0.001702,0.034158,0.999415
# ubconf = C:\User\exp41\UBConf\UB10Nov2003_64050PM.ini
# preset_type = normal 
# preset_channel = mcu
# preset_value = 4.000000
# def_x = h
# def_y = detector
# col_headers = 
#   Pt.          h          k          l       time   detector    monitor        mcu         m2         s1         s2        sgl        sgu        stl        stu         a1         a2          q         ei         ef          e       temp    coldtip    tsample
      1     1.9399     1.9402    -0.0000      3.736      0.000  14800.000      4.000    41.2537    54.9970   -74.7587    -0.0975     1.9545     1.0040    -3.9990    20.6266    41.2566     3.2273    14.6405    14.6385     0.0020   295.0000     4.2378     4.737
      2     1.9448     1.9451     0.0000      3.682      1.000  14800.000      4.000    41.2537    54.8839   -74.9812    -0.0975     1.9545     1.0040    -3.9990    20.6266    41.2566     3.2355    14.6405    14.6385     0.0020   295.0000     4.2370     4.735
      3     1.9498     1.9502    -0.0000      3.746      0.000  14800.000      4.000    41.2537    54.7717   -75.2095    -0.0975     1.9545     1.0040    -3.9990    20.6266    41.2566     3.2439    14.6405    14.6385     0.0020   295.0000     4.2370     4.735
      4     1.9548     1.9552    -0.0000      3.687      0.000  14800.000      4.000    41.2537    54.6585   -75.4349    -0.0975     1.9545     1.0040    -3.9990    20.6266    41.2566     3.2522    14.6405    14.6385     0.0020   295.0000     4.2364     4.733
      5     1.9598     1.9602     0.0000      3.670      1.000  14800.000      4.000    41.2537    54.5433   -75.6633    -0.0975     1.9545     1.0040    -3.9990    20.6266    41.2566     3.2605    14.6405    14.6385     0.0020   295.0000     4.2413     4.720
      6     1.9648     1.9652     0.0000      3.680      0.000  14800.000      4.000    41.2537    54.4301   -75.8887    -0.0975     1.9545     1.0040    -3.9990    20.6266    41.2566     3.2688    14.6405    14.6385     0.0020   295.0000     4.2413     4.720
      7     1.9699     1.9702    -0.0001      3.733      2.000  14800.000      4.000    41.2537    54.3179   -76.1200    -0.0975     1.9545     1.0040    -3.9990    20.6266    41.2566     3.2772    14.6405    14.6385     0.0020   295.0000     4.2363     4.732
      8     1.9748     1.9752     0.0000      3.728      4.000  14800.000      4.000    41.2537    54.2028   -76.3454    -0.0975     1.9545     1.0040    -3.9990    20.6266    41.2566     3.2855    14.6405    14.6385     0.0020   295.0000     4.2363     4.732
      9     1.9798     1.9802     0.0000      3.683     38.000  14800.000      4.000    41.2537    54.0886   -76.5737    -0.0975     1.9545     1.0040    -3.9990    20.6266    41.2566     3.2938    14.6405    14.6385     0.0020   295.0000     4.2332     4.729
     10     1.9848     1.9852     0.0000      3.650    170.000  14800.000      4.000    41.2537    53.9744   -76.8011    -0.0975     1.9545     1.0040    -3.9990    20.6266    41.2566     3.3021    14.6405    14.6385     0.0020   295.0000     4.2332     4.729
     11     1.9898     1.9902     0.0000      3.670    420.000  14800.000      4.000    41.2537    53.8602   -77.0304    -0.0975     1.9545     1.0040    -3.9990    20.6266    41.2566     3.3104    14.6405    14.6385     0.0020   295.0000     4.2435     4.720
     12     1.9948     1.9952    -0.0000      3.707    553.000  14800.000      4.000    41.2537    53.7461   -77.2607    -0.0975     1.9545     1.0040    -3.9990    20.6266    41.2566     3.3187    14.6405    14.6385     0.0020   295.0000     4.2358     4.718
     13     1.9998     2.0002     0.0000      3.711    650.000  14800.000      4.000    41.2537    53.6299   -77.4900    -0.0975     1.9545     1.0040    -3.9990    20.6266    41.2566     3.3270    14.6405    14.6385     0.0020   295.0000     4.2358     4.718
     14     2.0048     2.0052     0.0000      3.735    532.000  14800.000      4.000    41.2537    53.5148   -77.7204    -0.0975     1.9545     1.0040    -3.9990    20.6266    41.2566     3.3354    14.6405    14.6385     0.0020   295.0000     4.2338     4.723
     15     2.0098     2.0102     0.0000      3.715    390.000  14800.000      4.000    41.2537    53.3996   -77.9497    -0.0975     1.9545     1.0040    -3.9990    20.6266    41.2566     3.3437    14.6405    14.6385     0.0020   295.0000     4.2338     4.723
     16     2.0148     2.0152    -0.0000      3.719    233.000  14800.000      4.000    41.2537    53.2854   -78.1830    -0.0975     1.9545     1.0040    -3.9990    20.6266    41.2566     3.3521    14.6405    14.6385     0.0020   295.0000     4.2324     4.744
     17     2.0198     2.0202     0.0000      3.747     70.000  14800.000      4.000    41.2537    53.1693   -78.4123    -0.0975     1.9545     1.0040    -3.9990    20.6266    41.2566     3.3603    14.6405    14.6385     0.0020   295.0000     4.2364     4.730
     18     2.0248     2.0252    -0.0000      3.754     15.000  14800.000      4.000    41.2537    53.0541   -78.6456    -0.0975     1.9545     1.0040    -3.9990    20.6266    41.2566     3.3687    14.6405    14.6385     0.0020   295.0000     4.2364     4.730
     19     2.0298     2.0302    -0.0001      3.741      4.000  14800.000      4.000    41.2537    52.9400   -78.8749    -0.0975     1.9545     1.0040    -3.9990    20.6266    41.2566     3.3769    14.6405    14.6385     0.0020   295.0000     4.2357     4.720
     20     2.0348     2.0352    -0.0000      3.714      5.000  14800.000      4.000    41.2537    52.8219   -79.1082    -0.0975     1.9545     1.0040    -3.9990    20.6266    41.2566     3.3853    14.6405    14.6385     0.0020   295.0000     4.2357     4.720
     21     2.0398     2.0402    -0.0000      3.722      2.000  14800.000      4.000    41.2537    52.7057   -79.3424    -0.0975     1.9545     1.0040    -3.9990    20.6266    41.2566     3.3936    14.6405    14.6385     0.0020   295.0000     4.2334     4.717
     22     2.0448     2.0452     0.0001      3.697      1.000  14800.000      4.000    41.2537    52.5866   -79.5747    -0.0975     1.9545     1.0040    -3.9990    20.6266    41.2566     3.4019    14.6405    14.6385     0.0020   295.0000     4.2334     4.717
     23     2.0498     2.0502    -0.0000      3.726      1.000  14800.000      4.000    41.2537    52.4724   -79.8080    -0.0975     1.9545     1.0040    -3.9990    20.6266    41.2566     3.4102    14.6405    14.6385     0.0020   295.0000     4.2409     4.714
     24     2.0548     2.0552    -0.0000      3.713      1.000  14800.000      4.000    41.2537    52.3553   -80.0412    -0.0975     1.9545     1.0040    -3.9990    20.6266    41.2566     3.4185    14.6405    14.6385     0.0020   295.0000     4.2373     4.715
     25     2.0598     2.0602    -0.0000      3.741      0.000  14800.000      4.000    41.2537    52.2382   -80.2755    -0.0975     1.9545     1.0040    -3.9990    20.6266    41.2566     3.4268    14.6405    14.6385     0.0020   295.0000     4.2373     4.715
# Sum of Counts = 3093
# Center of Mass = 2.000390+/-0.050868
# Full Width Half-Maximum = 0.019018+/-0.028823
# 10:27:33 PM  11/10/2003   scan completed.
