# scan = 253
# date = 11/10/2003
# time = 9:12:23 PM
# experiment = TbPtIn single crystal;  100 plane
# experiment_number = 41
# command = scan h .47 .53 .0025 k .47 .53 .0025 l .47 .53 .0025 preset mcu 5
# builtin_command = scan h .47 .53 .0025 k .47 .53 .0025 l .47 .53 .0025 preset mcu 5
# users = O.Garlea, C.Stassis, J.L.Zarestky
# local_contact = J.L.Zarestky
# scan_title = hhh (.5,.5,.5) field dependence: base Temp, H = 0.000000 T
# monochromator = PG002
# analyzer = Pg002
# sense = +-+
# collimation = 48-40-40-102
# samplename = TbPtIn
# sampletype = crystal
# samplemosaic = 30.000000
# latticeconstants = 7.554053,7.554053,3.846679,90.000000,90.000000,120.000000
# ubmatrix = -0.005362,-0.005623,0.259740,-0.129577,-0.134798,-0.010795,0.080912,-0.071857,-0.000073
# mode = 0
# plane_normal = 0.001702,0.034158,0.999415
# ubconf = C:\User\exp41\UBConf\UB10Nov2003_64050PM.ini
# preset_type = normal 
# preset_channel = mcu
# preset_value = 5.000000
# def_x = h
# def_y = detector
# col_headers = 
#   Pt.          h          k          l       time   detector    monitor        mcu         m2         s1         s2        sgl        sgu        stl        stu         a1         a2          q         ei         ef          e       temp    coldtip    tsample
      1     0.4700     0.4701     0.4700      4.615     16.000  18500.000      5.000    41.2537    35.9970   -23.7912    -0.0975     1.9545     1.0040    -3.9990    20.6266    41.2566     1.0958    14.6405    14.6385     0.0020   295.0000     4.2369     5.434
      2     0.4724     0.4725     0.4725      4.682     22.000  18500.000      5.000    41.2537    35.9341   -23.9172    -0.0975     1.9545     1.0040    -3.9990    20.6266    41.2566     1.1015    14.6405    14.6385     0.0020   295.0000     4.2369     5.434
      3     0.4750     0.4750     0.4750      4.634     13.000  18500.000      5.000    41.2537    35.8691   -24.0471    -0.0975     1.9545     1.0040    -3.9990    20.6266    41.2566     1.1074    14.6405    14.6385     0.0020   295.0000     4.2304     5.430
      4     0.4775     0.4776     0.4775      4.620     11.000  18500.000      5.000    41.2537    35.8051   -24.1761    -0.0975     1.9545     1.0040    -3.9990    20.6266    41.2566     1.1132    14.6405    14.6385     0.0020   295.0000     4.2337     5.442
      5     0.4799     0.4800     0.4800      4.606     10.000  18500.000      5.000    41.2537    35.7402   -24.3040    -0.0975     1.9545     1.0040    -3.9990    20.6266    41.2566     1.1190    14.6405    14.6385     0.0020   295.0000     4.2337     5.442
      6     0.4825     0.4825     0.4825      4.623     25.000  18500.000      5.000    41.2537    35.6762   -24.4330    -0.0975     1.9545     1.0040    -3.9990    20.6266    41.2566     1.1249    14.6405    14.6385     0.0020   295.0000     4.2385     5.431
      7     0.4850     0.4851     0.4850      4.648     54.000  18500.000      5.000    41.2537    35.6112   -24.5619    -0.0975     1.9545     1.0040    -3.9990    20.6266    41.2566     1.1307    14.6405    14.6385     0.0020   295.0000     4.2385     5.431
      8     0.4875     0.4875     0.4875      4.678    184.000  18500.000      5.000    41.2537    35.5482   -24.6898    -0.0975     1.9545     1.0040    -3.9990    20.6266    41.2566     1.1365    14.6405    14.6385     0.0020   295.0000     4.2363     5.425
      9     0.4900     0.4900     0.4900      4.581    415.000  18500.000      5.000    41.2537    35.4833   -24.8188    -0.0975     1.9545     1.0040    -3.9990    20.6266    41.2566     1.1424    14.6405    14.6385     0.0020   295.0000     4.2345     5.430
     10     0.4924     0.4925     0.4925      4.619    609.000  18500.000      5.000    41.2537    35.4183   -24.9467    -0.0975     1.9545     1.0040    -3.9990    20.6266    41.2566     1.1482    14.6405    14.6385     0.0020   295.0000     4.2345     5.430
     11     0.4949     0.4950     0.4950      4.580    861.000  18500.000      5.000    41.2537    35.3543   -25.0757    -0.0975     1.9545     1.0040    -3.9990    20.6266    41.2566     1.1540    14.6405    14.6385     0.0020   295.0000     4.2315     5.418
     12     0.4975     0.4976     0.4975      4.660   1343.000  18500.000      5.000    41.2537    35.2904   -25.2056    -0.0975     1.9545     1.0040    -3.9990    20.6266    41.2566     1.1599    14.6405    14.6385     0.0020   295.0000     4.2365     5.427
     13     0.5000     0.5001     0.5000      4.557   1873.000  18500.000      5.000    41.2537    35.2264   -25.3335    -0.0975     1.9545     1.0040    -3.9990    20.6266    41.2566     1.1657    14.6405    14.6385     0.0020   295.0000     4.2365     5.427
     14     0.5024     0.5025     0.5025      4.634   1901.000  18500.000      5.000    41.2537    35.1614   -25.4615    -0.0975     1.9545     1.0040    -3.9990    20.6266    41.2566     1.1715    14.6405    14.6385     0.0020   295.0000     4.2359     5.425
     15     0.5050     0.5051     0.5050      4.577   1265.000  18500.000      5.000    41.2537    35.0984   -25.5914    -0.0975     1.9545     1.0040    -3.9990    20.6266    41.2566     1.1774    14.6405    14.6385     0.0020   295.0000     4.2323     5.427
     16     0.5074     0.5075     0.5075      4.660    630.000  18500.000      5.000    41.2537    35.0335   -25.7194    -0.0975     1.9545     1.0040    -3.9990    20.6266    41.2566     1.1832    14.6405    14.6385     0.0020   295.0000     4.2323     5.427
     17     0.5099     0.5100     0.5100      4.602    284.000  18500.000      5.000    41.2537    34.9695   -25.8483    -0.0975     1.9545     1.0040    -3.9990    20.6266    41.2566     1.1890    14.6405    14.6385     0.0020   295.0000     4.2314     5.431
     18     0.5124     0.5125     0.5125      4.646    164.000  18500.000      5.000    41.2537    34.9045   -25.9772    -0.0975     1.9545     1.0040    -3.9990    20.6266    41.2566     1.1948    14.6405    14.6385     0.0020   295.0000     4.2361     5.427
     19     0.5150     0.5151     0.5150      4.586     76.000  18500.000      5.000    41.2537    34.8406   -26.1072    -0.0975     1.9545     1.0040    -3.9990    20.6266    41.2566     1.2007    14.6405    14.6385     0.0020   295.0000     4.2361     5.427
     20     0.5175     0.5176     0.5175      4.623     29.000  18500.000      5.000    41.2537    34.7756   -26.2361    -0.0975     1.9545     1.0040    -3.9990    20.6266    41.2566     1.2065    14.6405    14.6385     0.0020   295.0000     4.2289     5.438
     21     0.5199     0.5200     0.5200      4.572     10.000  18500.000      5.000    41.2537    34.7106   -26.3631    -0.0975     1.9545     1.0040    -3.9990    20.6266    41.2566     1.2122    14.6405    14.6385     0.0020   295.0000     4.2315     5.426
     22     0.5225     0.5225     0.5225      4.606     10.000  18500.000      5.000    41.2537    34.6457   -26.4940    -0.0975     1.9545     1.0040    -3.9990    20.6266    41.2566     1.2182    14.6405    14.6385     0.0020   295.0000     4.2315     5.426
     23     0.5250     0.5251     0.5250      4.679      8.000  18500.000      5.000    41.2537    34.5827   -26.6229    -0.0975     1.9545     1.0040    -3.9990    20.6266    41.2566     1.2240    14.6405    14.6385     0.0020   295.0000     4.2374     5.425
     24     0.5274     0.5275     0.5275      4.631      9.000  18500.000      5.000    41.2537    34.5157   -26.7519    -0.0975     1.9545     1.0040    -3.9990    20.6266    41.2566     1.2298    14.6405    14.6385     0.0020   295.0000     4.2387     5.423
     25     0.5299     0.5300     0.5300      4.644     11.000  18500.000      5.000    41.2537    34.4528   -26.8798    -0.0975     1.9545     1.0040    -3.9990    20.6266    41.2566     1.2356    14.6405    14.6385     0.0020   295.0000     4.2387     5.423
# Sum of Counts = 9833
# Center of Mass = 0.500133+/-0.007133
# Full Width Half-Maximum = 0.012619+/-0.003010
# 9:15:44 PM  11/10/2003   scan completed.
